#GEFID= 1, 0, 0
#PROCEDURECODE = GEF-CPT-Report, 1,1,0, -
#FILEOWNER= Gemeentewerken Rotterdam
#FILEDATE= 2009, 1, 8
#TESTID = AZZ158
#PROJECTID= 2007-025
#REPORTTEXT= 201, werk: leidingenpassage yangtzehaven, -
#REPORTTEXT= 202, plaats: Rotterdam, -
#REPORTTEXT= 203, Sondering AZZ158, -
#MEASUREMENTTEXT= 4, CFP10-15I;050918, -
#MEASUREMENTTEXT= 6, NEN 5140 klasse:2, -
#MEASUREMENTTEXT= 22, Conustype: Cil.elec k
#MEASUREMENTTEXT= 23, Opmerking BM: GEEN
#COLUMN= 6
#COLUMNINFO= 1, m, sondeerlengte, 1
#COLUMNINFO= 2, MPa, Punt druk, 2
#COLUMNINFO= 3, Mpa, Lokale wrijving, 3
#COLUMNINFO= 4, Graden(deg), Helling, 8
#COLUMNINFO= 5, m, Gecorrigeerde diepte, 11
#COLUMNINFO= 6, s, tijd, 12
#LASTSCAN = 2980
#DATAFORMAT= ASCII
#OS= DOS
#LANGUAGE= NL
#COMPANYID= P.Dorsman, IGWR Rotterdam, 31
#MEASUREMENTTEXT = 9, Maaiveld
#ZID= 31000, 5.05
#XYID= 0, 0, 0
#STARTDATE= 2007, 10, 15
#EOH=
0.00 0.24 0.00 0.20 0.00 000040
0.02 0.32 0.00 0.00 0.02 000041
0.04 0.4 0.00 -0.30 0.04 000042
0.06 0.64 0.00 -0.30 0.06 000043
0.08 0.87 0.00 -0.30 0.08 000044
0.10 1.24 0.00 -0.10 0.10 000046
0.12 1.58 0.00 -0.10 0.12 000047
0.14 2.08 0.00 -0.30 0.14 000048
0.16 2.51 0.00 -0.30 0.16 000049
0.18 3.01 0.00 -0.10 0.18 000050
0.20 3.55 0.00 -0.30 0.20 000051
0.22 4.07 -0.001 -0.20 0.22 000053
0.24 4.48 0.00 -0.30 0.24 000054
0.26 4.4 0.001 -0.50 0.26 000055
0.28 4.02 0.007 -0.30 0.28 000056
0.30 3.83 0.011 -0.20 0.30 000057
0.32 4.09 0.014 -0.20 0.32 000058
0.34 5.08 0.021 -0.30 0.34 000059
0.36 5.95 0.019 -0.20 0.36 000069
0.38 6.74 0.028 -0.30 0.38 000070
0.40 7.06 0.03 -0.30 0.40 000071
0.42 7.17 0.031 -0.20 0.42 000072
0.44 7.16 0.034 -0.30 0.44 000073
0.46 7.13 0.035 -0.30 0.46 000074
0.48 6.82 0.036 -0.20 0.48 000075
0.50 6.37 0.036 -0.30 0.50 000076
0.52 5.91 0.038 -0.30 0.52 000077
0.54 5.37 0.045 -0.30 0.54 000078
0.56 4.82 0.045 -0.30 0.56 000079
0.58 3.98 0.053 -0.30 0.58 000079
0.60 3.65 0.055 -0.30 0.60 000080
0.62 3.25 0.07 -0.30 0.62 000081
0.64 3.65 0.079 -0.30 0.64 000082
0.66 4.15 0.08 -0.30 0.66 000083
0.68 4.65 0.081 -0.30 0.68 000084
0.70 5.13 0.08 -0.30 0.70 000085
0.72 5.28 0.077 -0.30 0.72 000086
0.74 5.45 0.074 -0.30 0.74 000087
0.76 5.78 0.067 -0.30 0.76 000087
0.78 6 0.067 -0.30 0.78 000088
0.80 6.22 0.06 -0.30 0.80 000089
0.82 6.27 0.058 -0.10 0.82 000090
0.84 6.2 0.055 -0.10 0.84 000091
0.86 6.06 0.049 -0.10 0.86 000092
0.88 5.9 0.047 -0.10 0.88 000093
0.90 5.76 0.047 -0.10 0.90 000094
0.92 5.57 0.046 -0.10 0.92 000094
0.94 5.37 0.047 -0.10 0.94 000095
0.96 5.12 0.046 -0.10 0.96 000096
0.98 4.95 0.044 -0.10 0.98 000097
1.00 4.67 0.042 -0.10 1.00 000098
1.02 4.49 0.041 -0.10 1.02 000099
1.04 4.35 0.039 -0.10 1.04 000100
1.06 4.18 0.036 -0.10 1.06 000101
1.08 4.04 0.035 -0.10 1.08 000101
1.10 3.92 0.034 -0.10 1.10 000102
1.12 3.81 0.032 -0.10 1.12 000103
1.14 3.71 0.031 -0.10 1.14 000104
1.16 3.61 0.031 -0.10 1.16 000105
1.18 3.51 0.031 -0.10 1.18 000106
1.20 3.43 0.03 -0.10 1.20 000107
1.22 3.32 0.029 -0.10 1.22 000108
1.24 3.23 0.028 -0.10 1.24 000109
1.26 3.17 0.029 -0.10 1.26 000109
1.28 3.12 0.029 -0.10 1.28 000110
1.30 3.1 0.031 -0.10 1.30 000111
1.32 3.5 0.0305 -0.10 1.32 000112
1.34 3.97 0.0308 -0.10 1.34 000121
1.36 4.44 0.031 -0.10 1.36 000122
1.38 4.93 0.032 -0.10 1.38 000123
1.40 5.29 0.032 -0.10 1.40 000124
1.42 5.82 0.033 -0.10 1.42 000125
1.44 6.26 0.032 -0.10 1.44 000126
1.46 6.75 0.029 -0.10 1.46 000126
1.48 7.14 0.028 -0.10 1.48 000127
1.50 7.66 0.026 -0.10 1.50 000128
1.52 8.37 0.026 -0.10 1.52 000129
1.54 9.22 0.026 -0.10 1.54 000130
1.56 10.15 0.029 -0.10 1.56 000131
1.58 11.13 0.033 -0.10 1.58 000132
1.60 12.33 0.035 -0.10 1.60 000133
1.62 13.27 0.037 -0.10 1.62 000134
1.64 13.97 0.041 -0.10 1.64 000134
1.66 14.47 0.047 -0.10 1.66 000135
1.68 14.7 0.055 -0.10 1.68 000136
1.70 14.66 0.061 -0.10 1.70 000137
1.72 14.59 0.065 -0.10 1.72 000138
1.74 14.62 0.069 -0.10 1.74 000139
1.76 14.91 0.075 -0.10 1.76 000140
1.78 15.44 0.079 -0.10 1.78 000141
1.80 16.31 0.081 -0.10 1.80 000142
1.82 17.72 0.081 -0.10 1.82 000143
1.84 19.32 0.08 -0.10 1.84 000143
1.86 20.09 0.081 -0.10 1.86 000144
1.88 20.63 0.082 -0.10 1.88 000145
1.90 21.12 0.085 -0.10 1.90 000146
1.92 21.69 0.088 -0.10 1.92 000147
1.94 22.42 0.091 -0.10 1.94 000148
1.96 23.12 0.095 -0.10 1.96 000149
1.98 23.46 0.10 -0.10 1.98 000150
2.00 23.3 0.104 -0.10 2.00 000151
2.02 22.88 0.109 -0.10 2.02 000152
2.04 22.46 0.112 -0.10 2.04 000153
2.06 21.9 0.12 -0.10 2.06 000153
2.08 21.37 0.124 -0.10 2.08 000154
2.10 20.37 0.131 -0.10 2.10 000155
2.12 19.74 0.135 -0.10 2.12 000156
2.14 19.3 0.137 -0.10 2.14 000157
2.16 19.5 0.137 -0.10 2.16 000158
2.18 19.41 0.137 -0.10 2.18 000159
2.20 18.84 0.141 -0.10 2.20 000160
2.22 18.05 0.143 -0.10 2.22 000161
2.24 17.68 0.139 -0.10 2.24 000162
2.26 17.36 0.135 -0.10 2.26 000162
2.28 17.18 0.133 -0.10 2.28 000163
2.30 17 0.125 -0.10 2.30 000173
2.32 16.81 0.117 -0.10 2.32 000174
2.34 17.05 0.116 -0.10 2.34 000174
2.36 17 0.113 -0.10 2.36 000175
2.38 16.9 0.108 -0.10 2.38 000176
2.40 16.89 0.11 -0.10 2.40 000177
2.42 16.9 0.112 -0.10 2.42 000178
2.44 16.92 0.11 -0.10 2.44 000179
2.46 16.95 0.1075 -0.10 2.46 000180
2.48 16.98 0.1058 -0.10 2.48 000181
2.50 17.04 0.1044 -0.10 2.50 000182
2.52 17.11 0.103 -0.10 2.52 000183
2.54 17.18 0.10 -0.10 2.54 000184
2.56 17.26 0.102 -0.10 2.56 000184
2.58 16.97 0.1073 -0.10 2.58 000185
2.60 15.85 0.1141 -0.10 2.60 000186
2.62 14.73 0.1211 -0.10 2.62 000187
2.64 13.78 0.1283 -0.10 2.64 000188
2.66 13.56 0.1356 -0.10 2.66 000189
2.68 14.19 0.143 -0.10 2.68 000190
2.70 14.81 0.147 -0.10 2.70 000191
2.72 16.74 0.144 -0.10 2.72 000192
2.74 18.67 0.136 -0.10 2.74 000193
2.76 20.07 0.1204 -0.10 2.76 000194
2.78 20.74 0.1076 -0.10 2.78 000194
2.80 21.08 0.099 -0.10 2.80 000195
2.82 21.28 0.0949 -0.10 2.82 000196
2.84 21.49 0.0939 -0.10 2.84 000197
2.86 21.69 0.0944 -0.10 2.86 000198
2.88 21.9 0.095 -0.10 2.88 000199
2.90 22.1 0.097 -0.10 2.90 000200
2.92 22.3 0.096 -0.10 2.92 000201
2.94 22.49 0.097 -0.10 2.94 000202
2.96 22.32 0.099 -0.10 2.96 000203
2.98 21.66 0.102 -0.10 2.98 000204
3.00 20.58 0.107 -0.10 3.00 000204
3.02 19.81 0.113 -0.10 3.02 000205
3.04 18.77 0.119 -0.10 3.04 000206
3.06 18.12 0.121 -0.10 3.06 000207
3.08 17.67 0.123 -0.10 3.08 000208
3.10 17.59 0.125 -0.10 3.10 000209
3.12 17.78 0.125 -0.10 3.12 000210
3.14 18.29 0.125 -0.10 3.14 000211
3.16 19.08 0.125 -0.10 3.16 000212
3.18 19.47 0.12 -0.10 3.18 000213
3.20 19.76 0.1175 -0.10 3.20 000213
3.22 20.1 0.1163 -0.10 3.22 000214
3.24 20.43 0.1156 0.10 3.24 000215
3.26 20.68 0.115 -0.10 3.26 000216
3.28 20.76 0.11 -0.10 3.28 000225
3.30 20.83 0.11 0.10 3.30 000226
3.32 20.91 0.111 0.10 3.32 000227
3.34 20.75 0.112 0.10 3.34 000228
3.36 20.21 0.1085 0.10 3.36 000229
3.38 19.62 0.1063 0.10 3.38 000230
3.40 19.03 0.104 0.10 3.40 000231
3.42 18.57 0.1005 0.10 3.42 000232
3.44 18.29 0.0973 0.10 3.44 000233
3.46 18.01 0.094 0.10 3.46 000234
3.48 18.23 0.092 0.10 3.48 000235
3.50 18.71 0.092 0.10 3.50 000235
3.52 19.06 0.092 0.10 3.52 000236
3.54 19.6 0.10 0.10 3.54 000237
3.56 19.91 0.104 0.10 3.56 000238
3.58 19.97 0.104 0.10 3.58 000239
3.60 19.99 0.103 0.10 3.60 000240
3.62 19.93 0.102 0.10 3.62 000241
3.64 19.97 0.102 0.10 3.64 000242
3.66 19.92 0.102 0.10 3.66 000243
3.68 19.88 0.102 0.10 3.68 000244
3.70 19.85 0.10 0.10 3.70 000245
3.72 19.71 0.096 0.10 3.72 000245
3.74 19.78 0.094 0.10 3.74 000246
3.76 19.67 0.089 0.10 3.76 000247
3.78 19.37 0.085 0.10 3.78 000248
3.80 19.1 0.077 0.10 3.80 000249
3.82 19.03 0.072 0.10 3.82 000250
3.84 18.75 0.064 0.20 3.84 000251
3.86 18.36 0.059 0.20 3.86 000252
3.88 17.88 0.056 0.10 3.88 000253
3.90 17.5 0.056 0.30 3.90 000254
3.92 16.7 0.058 0.30 3.92 000254
3.94 16.13 0.059 0.30 3.94 000255
3.96 15.79 0.059 0.30 3.96 000256
3.98 16.01 0.061 0.30 3.98 000257
4.00 16.99 0.063 0.30 4.00 000258
4.02 17.94 0.062 0.30 4.02 000259
4.04 18.63 0.058 0.30 4.04 000260
4.06 18.86 0.052 0.30 4.06 000261
4.08 18.98 0.053 0.30 4.08 000262
4.10 18.88 0.051 0.30 4.10 000263
4.12 18.57 0.046 0.30 4.12 000263
4.14 18.54 0.042 0.30 4.14 000264
4.16 18.58 0.041 0.30 4.16 000265
4.18 18.63 0.043 0.30 4.18 000266
4.20 18.43 0.047 0.30 4.20 000267
4.22 18.13 0.051 0.30 4.22 000268
4.24 17.83 0.058 0.30 4.24 000269
4.26 17.83 0.059 0.30 4.26 000278
4.28 17.83 0.06 0.30 4.28 000279
4.30 18.05 0.065 0.50 4.30 000280
4.32 18.14 0.071 0.50 4.32 000281
4.34 18.14 0.076 0.50 4.34 000282
4.36 17.99 0.081 0.50 4.36 000283
4.38 17.84 0.083 0.50 4.38 000284
4.40 17.53 0.085 0.50 4.40 000284
4.42 17.25 0.088 0.50 4.42 000285
4.44 16.87 0.091 0.50 4.44 000286
4.46 16.7 0.092 0.50 4.46 000287
4.48 16.61 0.091 0.50 4.48 000288
4.50 16.55 0.092 0.50 4.50 000289
4.52 16.36 0.091 0.50 4.52 000290
4.54 16.21 0.09 0.50 4.54 000291
4.56 16.08 0.089 0.50 4.56 000292
4.58 15.88 0.089 0.50 4.58 000293
4.60 15.55 0.088 0.50 4.60 000293
4.62 15.27 0.087 0.50 4.62 000294
4.64 14.77 0.086 0.50 4.64 000295
4.66 14.28 0.085 0.50 4.66 000296
4.68 13.75 0.086 0.50 4.68 000297
4.70 13.47 0.086 0.50 4.70 000298
4.72 13.2 0.086 0.50 4.72 000299
4.74 13 0.085 0.50 4.74 000300
4.76 12.71 0.086 0.50 4.76 000301
4.78 12.47 0.086 0.50 4.78 000302
4.80 11.92 0.087 0.50 4.80 000302
4.82 11.38 0.088 0.50 4.82 000303
4.84 10.92 0.085 0.50 4.84 000304
4.86 10.52 0.085 0.50 4.86 000305
4.88 10.26 0.085 0.50 4.88 000306
4.90 9.95 0.086 0.50 4.90 000307
4.92 9.81 0.083 0.50 4.92 000308
4.94 9.83 0.082 0.50 4.94 000309
4.96 9.94 0.081 0.50 4.96 000310
4.98 9.99 0.078 0.50 4.98 000310
5.00 10.07 0.076 0.50 5.00 000311
5.02 10.08 0.073 0.50 5.02 000312
5.04 9.91 0.07 0.50 5.04 000313
5.06 9.67 0.067 0.50 5.06 000314
5.08 9.22 0.063 0.50 5.08 000315
5.10 8.88 0.062 0.50 5.10 000316
5.12 8.55 0.058 0.50 5.12 000317
5.14 8.55 0.056 0.50 5.14 000317
5.16 8.89 0.055 0.50 5.16 000318
5.18 9.14 0.055 0.50 5.18 000319
5.20 9.24 0.056 0.50 5.20 000320
5.22 8.91 0.055 0.50 5.22 000329
5.24 8.57 0.054 0.50 5.24 000330
5.26 8.75 0.061 0.50 5.26 000331
5.28 8.82 0.06 0.50 5.28 000332
5.30 8.8 0.057 0.50 5.30 000333
5.32 8.77 0.056 0.50 5.32 000334
5.34 8.8 0.054 0.50 5.34 000335
5.36 8.94 0.051 0.50 5.36 000336
5.38 9.05 0.047 0.50 5.38 000337
5.40 8.98 0.044 0.50 5.40 000337
5.42 8.77 0.045 0.50 5.42 000338
5.44 8.55 0.046 0.50 5.44 000339
5.46 8.37 0.046 0.50 5.46 000340
5.48 8.2 0.046 0.50 5.48 000341
5.50 8.14 0.046 0.50 5.50 000342
5.52 8.19 0.045 0.50 5.52 000343
5.54 8.13 0.042 0.50 5.54 000344
5.56 7.88 0.04 0.50 5.56 000345
5.58 7.62 0.038 0.50 5.58 000346
5.60 7.42 0.037 0.50 5.60 000347
5.62 7.34 0.038 0.50 5.62 000348
5.64 7.4 0.038 0.50 5.64 000349
5.66 7.53 0.038 0.50 5.66 000349
5.68 7.63 0.037 0.50 5.68 000350
5.70 7.29 0.037 0.50 5.70 000351
5.72 6.7 0.036 0.50 5.72 000352
5.74 6.35 0.037 0.50 5.74 000353
5.76 6.05 0.04 0.50 5.76 000354
5.78 5.89 0.041 0.50 5.78 000355
5.80 5.71 0.042 0.50 5.80 000356
5.82 5.44 0.045 0.50 5.82 000356
5.84 5.16 0.055 0.50 5.84 000357
5.86 5.03 0.06 0.50 5.86 000358
5.88 5.3 0.061 0.50 5.88 000359
5.90 5.83 0.063 0.50 5.90 000360
5.92 6.49 0.063 0.50 5.92 000361
5.94 6.85 0.059 0.50 5.94 000362
5.96 7.28 0.059 0.50 5.96 000363
5.98 7.51 0.053 0.50 5.98 000364
6.00 7.61 0.047 0.50 6.00 000364
6.02 7.58 0.045 0.50 6.02 000365
6.04 7.65 0.044 0.50 6.04 000366
6.06 7.79 0.042 0.50 6.06 000367
6.08 7.77 0.038 0.50 6.08 000368
6.10 7.65 0.04 0.50 6.10 000369
6.12 7.53 0.041 0.50 6.12 000370
6.14 7.38 0.039 0.50 6.14 000371
6.16 7.24 0.038 0.50 6.16 000371
6.18 6.93 0.0355 0.50 6.18 000381
6.20 6.62 0.033 0.50 6.20 000381
6.22 6.43 0.033 0.50 6.22 000382
6.24 6.15 0.033 0.50 6.24 000383
6.26 5.98 0.033 0.50 6.26 000384
6.28 5.75 0.035 0.50 6.28 000385
6.30 5.58 0.035 0.50 6.30 000386
6.32 5.47 0.035 0.50 6.32 000387
6.34 5.34 0.034 0.50 6.34 000388
6.36 5.27 0.033 0.50 6.36 000389
6.38 5.22 0.031 0.50 6.38 000389
6.40 5.16 0.025 0.40 6.40 000404
6.42 5.09 0.019 0.40 6.42 000405
6.44 5.06 0.019 0.40 6.44 000406
6.46 4.98 0.02 0.40 6.46 000407
6.48 4.82 0.021 0.40 6.48 000408
6.50 4.65 0.021 0.40 6.50 000408
6.52 4.57 0.021 0.40 6.52 000409
6.54 4.47 0.022 0.40 6.54 000410
6.56 4.35 0.023 0.40 6.56 000411
6.58 3.91 0.025 0.40 6.58 000412
6.60 3.62 0.025 0.40 6.60 000413
6.62 3.37 0.025 0.40 6.62 000414
6.64 3.09 0.032 0.40 6.64 000415
6.66 2.71 0.04 0.40 6.66 000416
6.68 2.95 0.044 0.40 6.68 000416
6.70 3.48 0.045 0.40 6.70 000417
6.72 4.22 0.04 0.40 6.72 000418
6.74 4.37 0.039 0.40 6.74 000419
6.76 4.45 0.037 0.40 6.76 000420
6.78 4.49 0.034 0.40 6.78 000421
6.80 4.59 0.032 0.40 6.80 000422
6.82 4.62 0.031 0.40 6.82 000423
6.84 4.63 0.029 0.40 6.84 000424
6.86 4.73 0.027 0.40 6.86 000424
6.88 4.89 0.025 0.40 6.88 000425
6.90 5.01 0.026 0.40 6.90 000426
6.92 5.03 0.028 0.40 6.92 000427
6.94 5.03 0.028 0.40 6.94 000428
6.96 5.07 0.028 0.40 6.96 000429
6.98 5.13 0.027 0.40 6.98 000430
7.00 5.19 0.026 0.40 7.00 000431
7.02 5.21 0.026 0.40 7.02 000432
7.04 5.21 0.026 0.40 7.04 000432
7.06 5.19 0.025 0.40 7.06 000433
7.08 5.19 0.024 0.40 7.08 000434
7.10 5.21 0.026 0.30 7.10 000435
7.12 5.2 0.028 0.40 7.12 000436
7.14 5.14 0.029 0.40 7.14 000437
7.16 5.08 0.03 0.40 7.16 000438
7.18 5.04 0.03 0.40 7.18 000439
7.20 5 0.031 0.40 7.20 000440
7.22 4.95 0.031 0.40 7.22 000440
7.24 4.89 0.031 0.40 7.24 000441
7.26 4.84 0.031 0.40 7.26 000442
7.28 4.79 0.03 0.40 7.28 000443
7.30 4.71 0.03 0.40 7.30 000444
7.32 4.64 0.029 0.40 7.32 000445
7.34 4.57 0.025 0.40 7.34 000454
7.36 4.5 0.021 0.30 7.36 000455
7.38 4.49 0.021 0.40 7.38 000456
7.40 4.42 0.02 0.40 7.40 000457
7.42 4.31 0.02 0.30 7.42 000457
7.44 4.16 0.021 0.30 7.44 000458
7.46 4.11 0.022 0.40 7.46 000459
7.48 4.2 0.022 0.40 7.48 000460
7.50 4.2 0.022 0.30 7.50 000461
7.52 4.11 0.023 0.30 7.52 000462
7.54 3.99 0.023 0.40 7.54 000463
7.56 3.88 0.024 0.30 7.56 000464
7.58 3.56 0.025 0.30 7.58 000465
7.60 3.49 0.03 0.40 7.60 000465
7.62 3.77 0.033 0.30 7.62 000466
7.64 3.92 0.032 0.30 7.64 000467
7.66 4.03 0.031 0.30 7.66 000468
7.68 4.2 0.034 0.40 7.68 000469
7.70 4.18 0.033 0.30 7.70 000470
7.72 4.09 0.032 0.40 7.72 000471
7.74 3.96 0.032 0.30 7.74 000472
7.76 3.72 0.032 0.30 7.76 000473
7.78 3.52 0.032 0.30 7.78 000473
7.80 3.46 0.031 0.30 7.80 000474
7.82 3.44 0.032 0.30 7.82 000475
7.84 3.47 0.031 0.30 7.84 000476
7.86 3.69 0.031 0.30 7.86 000477
7.88 3.86 0.03 0.30 7.88 000478
7.90 3.96 0.029 0.30 7.90 000479
7.92 4.06 0.027 0.30 7.92 000480
7.94 4.15 0.026 0.30 7.94 000481
7.96 4.3 0.025 0.30 7.96 000481
7.98 4.47 0.023 0.30 7.98 000482
8.00 4.71 0.022 0.30 8.00 000483
8.02 4.87 0.022 0.30 8.02 000484
8.04 5.08 0.022 0.30 8.04 000485
8.06 5.2 0.022 0.30 8.06 000486
8.08 5.24 0.022 0.30 8.08 000487
8.10 5.26 0.024 0.30 8.10 000488
8.12 5.36 0.025 0.30 8.12 000489
8.14 5.45 0.027 0.30 8.14 000489
8.16 5.49 0.028 0.30 8.16 000490
8.18 5.49 0.028 0.30 8.18 000491
8.20 5.5 0.029 0.30 8.20 000492
8.22 5.49 0.032 0.30 8.22 000493
8.24 5.46 0.035 0.30 8.24 000494
8.26 5.43 0.036 0.30 8.26 000495
8.28 5.39 0.035 0.30 8.28 000496
8.30 5.38 0.033 0.30 8.30 000496
8.32 5.35 0.0295 0.30 8.32 000505
8.34 5.31 0.026 0.30 8.34 000506
8.36 5.41 0.026 0.30 8.36 000507
8.38 5.54 0.026 0.30 8.38 000508
8.40 5.8 0.024 0.30 8.40 000509
8.42 6.08 0.023 0.30 8.42 000510
8.44 6.43 0.022 0.30 8.44 000511
8.46 6.75 0.021 0.30 8.46 000512
8.48 6.97 0.022 0.30 8.48 000513
8.50 7.27 0.023 0.30 8.50 000514
8.52 7.48 0.025 0.20 8.52 000515
8.54 7.7 0.027 0.30 8.54 000515
8.56 7.83 0.028 0.20 8.56 000516
8.58 7.95 0.03 0.20 8.58 000517
8.60 8.06 0.033 0.20 8.60 000518
8.62 8.12 0.035 0.20 8.62 000519
8.64 8.19 0.037 0.20 8.64 000520
8.66 8.24 0.039 0.20 8.66 000521
8.68 8.27 0.039 0.20 8.68 000522
8.70 8.28 0.04 0.20 8.70 000523
8.72 8.28 0.04 0.20 8.72 000523
8.74 8.25 0.04 0.20 8.74 000524
8.76 8.16 0.04 0.20 8.76 000525
8.78 8.12 0.04 0.20 8.78 000526
8.80 8.04 0.038 0.20 8.80 000527
8.82 8.04 0.036 0.10 8.82 000528
8.84 8.05 0.033 0.10 8.84 000529
8.86 7.97 0.031 0.20 8.86 000530
8.88 7.8 0.031 0.10 8.88 000531
8.90 7.52 0.033 0.10 8.90 000531
8.92 7.29 0.035 0.10 8.92 000532
8.94 7.11 0.038 0.10 8.94 000533
8.96 6.86 0.041 0.10 8.96 000534
8.98 6.67 0.043 0.10 8.98 000535
9.00 6.46 0.043 0.10 9.00 000536
9.02 6.34 0.043 0.10 9.02 000537
9.04 6.18 0.043 0.10 9.04 000538
9.06 6.08 0.044 0.10 9.06 000539
9.08 6.01 0.044 0.10 9.08 000539
9.10 5.92 0.043 0.10 9.10 000540
9.12 5.83 0.042 0.10 9.12 000541
9.14 5.71 0.042 0.10 9.14 000542
9.16 5.65 0.041 0.10 9.16 000543
9.18 5.53 0.041 0.10 9.18 000544
9.20 5.45 0.04 0.10 9.20 000545
9.22 5.4 0.039 0.10 9.22 000546
9.24 5.38 0.038 0.10 9.24 000546
9.26 5.42 0.036 0.10 9.26 000547
9.28 5.34 0.0345 0.10 9.28 000556
9.30 5.26 0.033 0.10 9.30 000557
9.32 5.13 0.035 0.10 9.32 000558
9.34 4.88 0.0365 0.10 9.34 000564
9.36 4.62 0.038 0.10 9.36 000565
9.38 4.39 0.038 0.10 9.38 000566
9.40 4.21 0.039 0.10 9.40 000567
9.42 4.18 0.042 0.10 9.42 000567
9.44 4.57 0.044 0.10 9.44 000568
9.46 5 0.045 0.10 9.46 000569
9.48 5.41 0.043 0.10 9.48 000570
9.50 5.59 0.04 0.10 9.50 000571
9.52 5.64 0.038 0.10 9.52 000572
9.54 5.66 0.037 0.10 9.54 000573
9.56 5.66 0.036 0.10 9.56 000574
9.58 5.69 0.035 0.10 9.58 000575
9.60 5.73 0.033 0.10 9.60 000575
9.62 5.76 0.032 0.10 9.62 000576
9.64 5.81 0.03 0.10 9.64 000577
9.66 5.82 0.03 0.10 9.66 000578
9.68 5.84 0.03 0.10 9.68 000579
9.70 5.85 0.031 0.10 9.70 000580
9.72 5.84 0.032 0.10 9.72 000581
9.74 5.81 0.032 0.10 9.74 000582
9.76 5.79 0.033 0.10 9.76 000583
9.78 5.74 0.032 0.10 9.78 000583
9.80 5.68 0.033 0.10 9.80 000584
9.82 5.58 0.034 0.10 9.82 000585
9.84 5.47 0.035 0.10 9.84 000586
9.86 5.34 0.035 0.10 9.86 000587
9.88 5.36 0.035 0.10 9.88 000588
9.90 5.37 0.036 0.10 9.90 000589
9.92 5.27 0.036 0.10 9.92 000590
9.94 5.14 0.036 0.10 9.94 000590
9.96 4.96 0.036 0.10 9.96 000591
9.98 4.69 0.036 0.10 9.98 000592
10.00 4.48 0.034 0.10 10.00 000593
10.02 4.16 0.032 0.10 10.02 000594
10.04 4.05 0.033 0.10 10.04 000595
10.06 4.04 0.038 0.10 10.06 000596
10.08 4.3 0.044 0.10 10.08 000597
10.10 4.55 0.043 0.10 10.10 000598
10.12 4.63 0.041 0.10 10.12 000598
10.14 4.64 0.039 0.10 10.14 000599
10.16 4.68 0.036 0.10 10.16 000600
10.18 4.71 0.034 0.10 10.18 000601
10.20 4.74 0.031 0.10 10.20 000602
10.22 4.73 0.029 0.10 10.22 000603
10.24 4.71 0.025 0.10 10.24 000612
10.26 4.69 0.021 0.10 10.26 000613
10.28 4.72 0.022 0.10 10.28 000614
10.30 4.68 0.025 0.10 10.30 000614
10.32 4.61 0.026 0.10 10.32 000615
10.34 4.46 0.026 0.10 10.34 000616
10.36 4.32 0.027 0.10 10.36 000617
10.38 4.07 0.027 0.10 10.38 000618
10.40 3.73 0.028 0.10 10.40 000619
10.42 3.54 0.031 0.10 10.42 000620
10.44 3.47 0.036 0.10 10.44 000621
10.46 3.76 0.037 0.10 10.46 000622
10.48 4.09 0.036 0.10 10.48 000622
10.50 4.23 0.033 0.10 10.50 000623
10.52 4.43 0.031 0.10 10.52 000624
10.54 4.54 0.029 0.10 10.54 000625
10.56 4.61 0.027 0.10 10.56 000626
10.58 4.65 0.026 0.10 10.58 000627
10.60 4.7 0.025 0.10 10.60 000628
10.62 4.76 0.024 0.10 10.62 000629
10.64 4.78 0.023 0.10 10.64 000629
10.66 4.79 0.023 0.10 10.66 000630
10.68 4.79 0.025 0.10 10.68 000631
10.70 4.78 0.027 0.10 10.70 000632
10.72 4.76 0.028 -0.10 10.72 000633
10.74 4.73 0.028 0.10 10.74 000634
10.76 4.71 0.028 0.10 10.76 000635
10.78 4.68 0.027 0.10 10.78 000636
10.80 4.67 0.027 0.10 10.80 000637
10.82 4.65 0.026 0.10 10.82 000637
10.84 4.63 0.026 0.10 10.84 000638
10.86 4.61 0.026 0.10 10.86 000639
10.88 4.59 0.026 0.10 10.88 000640
10.90 4.53 0.026 0.10 10.90 000641
10.92 4.43 0.026 0.10 10.92 000642
10.94 4.33 0.027 0.10 10.94 000643
10.96 4.22 0.028 0.10 10.96 000644
10.98 4.07 0.027 0.10 10.98 000644
11.00 4.05 0.025 0.10 11.00 000645
11.02 3.89 0.021 0.10 11.02 000646
11.04 3.81 0.019 0.10 11.04 000647
11.06 3.75 0.024 0.10 11.06 000648
11.08 3.68 0.026 -0.10 11.08 000649
11.10 3.61 0.0295 0.10 11.10 000650
11.12 3.48 0.033 0.10 11.12 000651
11.14 3.35 0.0355 0.10 11.14 000651
11.16 3.32 0.038 0.10 11.16 000652
11.18 3.43 0.04 0.10 11.18 000653
11.20 3.58 0.042 0.10 11.20 000654
11.22 3.76 0.041 -0.10 11.22 000663
11.24 3.94 0.042 0.10 11.24 000664
11.26 4.12 0.043 -0.10 11.26 000665
11.28 4.38 0.044 -0.10 11.28 000666
11.30 4.64 0.043 0.10 11.30 000667
11.32 4.79 0.041 -0.10 11.32 000668
11.34 4.94 0.037 0.10 11.34 000668
11.36 5.03 0.0315 -0.10 11.36 000669
11.38 5.12 0.0273 -0.10 11.38 000670
11.40 5.21 0.023 0.10 11.40 000671
11.42 5.21 0.02 -0.10 11.42 000672
11.44 5.09 0.022 -0.10 11.44 000673
11.46 4.94 0.023 0.10 11.46 000674
11.48 4.55 0.026 0.10 11.48 000675
11.50 4.01 0.028 0.10 11.50 000676
11.52 3.51 0.029 0.10 11.52 000676
11.54 2.9 0.035 0.10 11.54 000677
11.56 2.81 0.044 0.10 11.56 000678
11.58 2.92 0.059 0.10 11.58 000679
11.60 3.39 0.054 0.10 11.60 000680
11.62 3.8 0.056 0.10 11.62 000681
11.64 4.33 0.05 0.10 11.64 000682
11.66 4.48 0.048 0.10 11.66 000683
11.68 4.61 0.043 0.10 11.68 000683
11.70 4.75 0.042 0.10 11.70 000684
11.72 4.81 0.045 -0.10 11.72 000685
11.74 4.71 0.049 -0.10 11.74 000686
11.76 4.5 0.045 0.10 11.76 000687
11.78 4.07 0.043 -0.10 11.78 000688
11.80 3.8 0.044 -0.10 11.80 000689
11.82 3.73 0.045 -0.10 11.82 000690
11.84 3.75 0.044 -0.10 11.84 000690
11.86 4.01 0.044 -0.10 11.86 000691
11.88 4.41 0.048 -0.10 11.88 000692
11.90 4.53 0.048 -0.10 11.90 000693
11.92 4.7 0.046 -0.10 11.92 000694
11.94 4.92 0.046 -0.10 11.94 000695
11.96 4.9 0.043 -0.10 11.96 000696
11.98 4.67 0.041 -0.10 11.98 000697
12.00 4.45 0.039 -0.10 12.00 000698
12.02 4.06 0.036 -0.10 12.02 000698
12.04 3.74 0.033 -0.10 12.04 000699
12.06 3.52 0.039 -0.10 12.06 000700
12.08 3.82 0.054 -0.10 12.08 000701
12.10 4.2 0.058 -0.10 12.10 000702
12.12 4.59 0.055 -0.10 12.12 000703
12.14 4.79 0.0505 -0.10 12.14 000704
12.16 4.71 0.046 -0.10 12.16 000705
12.18 4.4 0.041 -0.10 12.18 000705
12.20 3.94 0.037 -0.10 12.20 000714
12.22 3.38 0.0355 -0.10 12.22 000715
12.24 3.06 0.0363 -0.10 12.24 000716
12.26 3.1 0.0411 -0.10 12.26 000717
12.28 3.5 0.0461 -0.10 12.28 000718
12.30 3.9 0.051 -0.10 12.30 000719
12.32 4.15 0.0445 -0.10 12.32 000720
12.34 4.01 0.0398 -0.10 12.34 000721
12.36 3.9 0.0354 -0.10 12.36 000721
12.38 3.78 0.031 -0.10 12.38 000722
12.40 3.96 0.035 -0.10 12.40 000723
12.42 4.5 0.036 -0.10 12.42 000724
12.44 4.97 0.034 -0.10 12.44 000725
12.46 5.13 0.035 -0.10 12.46 000726
12.48 5.22 0.038 -0.10 12.48 000727
12.50 5.43 0.04 -0.10 12.50 000728
12.52 5.54 0.04 -0.10 12.52 000729
12.54 5.73 0.04 -0.10 12.54 000729
12.56 5.88 0.04 -0.10 12.56 000730
12.58 6.06 0.04 -0.10 12.58 000731
12.60 6.11 0.041 -0.10 12.60 000732
12.62 6.24 0.04 -0.10 12.62 000733
12.64 6.32 0.042 -0.10 12.64 000734
12.66 6.41 0.041 -0.10 12.66 000735
12.68 6.59 0.04 -0.10 12.68 000736
12.70 6.87 0.037 -0.10 12.70 000737
12.72 7.09 0.034 -0.10 12.72 000737
12.74 7.29 0.03 -0.10 12.74 000738
12.76 7.29 0.028 -0.10 12.76 000739
12.78 7.13 0.028 -0.10 12.78 000740
12.80 6.84 0.028 -0.10 12.80 000741
12.82 6.52 0.03 -0.10 12.82 000742
12.84 6.18 0.033 -0.10 12.84 000743
12.86 5.58 0.037 -0.10 12.86 000744
12.88 5.18 0.037 -0.10 12.88 000745
12.90 4.82 0.04 -0.10 12.90 000745
12.92 4.89 0.048 -0.10 12.92 000746
12.94 4.87 0.059 -0.10 12.94 000747
12.96 5.07 0.07 -0.10 12.96 000748
12.98 5.59 0.067 -0.10 12.98 000749
13.00 5.91 0.065 -0.10 13.00 000750
13.02 5.81 0.064 -0.10 13.02 000751
13.04 5.5 0.061 -0.10 13.04 000752
13.06 5.36 0.058 -0.10 13.06 000752
13.08 5.06 0.057 -0.30 13.08 000753
13.10 4.6 0.061 -0.30 13.10 000754
13.12 4.44 0.065 -0.30 13.12 000755
13.14 4.76 0.074 -0.30 13.14 000756
13.16 5.52 0.0695 -0.30 13.16 000765
13.18 6.27 0.065 -0.30 13.18 000766
13.20 6.66 0.063 -0.30 13.20 000767
13.22 6.86 0.065 -0.30 13.22 000768
13.24 7.01 0.058 -0.30 13.24 000768
13.26 7.11 0.054 -0.30 13.26 000769
13.28 7.09 0.052 -0.30 13.28 000770
13.30 6.96 0.052 -0.30 13.30 000771
13.32 6.57 0.048 -0.30 13.32 000772
13.34 6.08 0.047 -0.30 13.34 000773
13.36 5.23 0.054 -0.30 13.36 000774
13.38 4.58 0.058 -0.30 13.38 000775
13.40 3.74 0.068 -0.20 13.40 000776
13.42 3.37 0.08 -0.20 13.42 000776
13.44 3.84 0.092 -0.20 13.44 000777
13.46 4.58 0.096 -0.20 13.46 000778
13.48 5.36 0.088 -0.20 13.48 000779
13.50 5.68 0.071 -0.20 13.50 000780
13.52 5.46 0.061 -0.20 13.52 000781
13.54 4.98 0.054 -0.20 13.54 000782
13.56 4.35 0.051 -0.20 13.56 000783
13.58 3.68 0.049 -0.20 13.58 000784
13.60 2.97 0.051 -0.20 13.60 000784
13.62 2.63 0.051 -0.20 13.62 000785
13.64 2.24 0.061 -0.20 13.64 000786
13.66 2.03 0.061 -0.20 13.66 000787
13.68 1.62 0.059 -0.20 13.68 000788
13.70 1.35 0.053 -0.20 13.70 000789
13.72 1.23 0.05 -0.20 13.72 000790
13.74 1.19 0.047 -0.20 13.74 000791
13.76 1.17 0.043 -0.20 13.76 000792
13.78 1.2 0.037 -0.20 13.78 000792
13.80 1.26 0.033 -0.20 13.80 000793
13.82 1.38 0.031 -0.20 13.82 000794
13.84 1.5 0.029 -0.20 13.84 000795
13.86 1.61 0.025 -0.20 13.86 000796
13.88 1.58 0.022 -0.20 13.88 000797
13.90 1.72 0.024 -0.20 13.90 000798
13.92 2.1 0.026 -0.20 13.92 000799
13.94 2.25 0.027 -0.20 13.94 000799
13.96 2.23 0.027 -0.20 13.96 000800
13.98 1.99 0.026 -0.20 13.98 000801
14.00 1.7 0.027 -0.20 14.00 000802
14.02 1.5 0.033 -0.20 14.02 000803
14.04 1.76 0.035 -0.20 14.04 000804
14.06 2.29 0.034 -0.20 14.06 000805
14.08 2.94 0.032 -0.20 14.08 000806
14.10 3.34 0.031 -0.20 14.10 000806
14.12 3.48 0.03 -0.20 14.12 000807
14.14 3.22 0.034 -0.20 14.14 000816
14.16 2.58 0.034 -0.20 14.16 000817
14.18 1.85 0.033 -0.20 14.18 000818
14.20 1.55 0.035 -0.20 14.20 000819
14.22 1.29 0.043 -0.20 14.22 000820
14.24 1.25 0.042 -0.20 14.24 000821
14.26 1.3 0.043 -0.20 14.26 000822
14.28 1.39 0.042 -0.20 14.28 000822
14.30 1.26 0.039 -0.20 14.30 000823
14.32 1.22 0.034 -0.20 14.32 000824
14.34 1.18 0.032 -0.20 14.34 000825
14.36 1.17 0.027 -0.20 14.36 000826
14.38 1.19 0.021 -0.20 14.38 000827
14.40 1.22 0.019 -0.20 14.40 000828
14.42 1.24 0.018 -0.20 14.42 000828
14.44 1.28 0.018 -0.20 14.44 000829
14.46 1.31 0.018 -0.20 14.46 000830
14.48 1.31 0.0175 -0.20 14.48 000831
14.50 1.3 0.0173 -0.20 14.50 000832
14.52 1.27 0.0171 -0.20 14.52 000833
14.54 1.26 0.017 -0.20 14.54 000834
14.56 1.27 0.0165 -0.20 14.56 000835
14.58 1.29 0.016 -0.20 14.58 000835
14.60 1.34 0.014 -0.20 14.60 000836
14.62 1.59 0.012 -0.20 14.62 000837
14.64 1.83 0.011 -0.20 14.64 000838
14.66 2.04 0.011 -0.20 14.66 000839
14.68 1.97 0.0145 -0.20 14.68 000840
14.70 1.66 0.018 -0.20 14.70 000841
14.72 1.46 0.024 -0.20 14.72 000841
14.74 1.41 0.027 -0.20 14.74 000842
14.76 1.42 0.027 -0.20 14.76 000843
14.78 1.46 0.029 -0.20 14.78 000844
14.80 1.88 0.033 -0.30 14.80 000845
14.82 3.31 0.0435 -0.20 14.82 000846
14.84 5.21 0.054 -0.20 14.84 000847
14.86 7.1 0.045 -0.20 14.86 000848
14.88 7.25 0.039 -0.20 14.88 000849
14.90 6.97 0.035 -0.20 14.90 000849
14.92 6.68 0.0385 -0.30 14.92 000850
14.94 5.55 0.042 -0.30 14.94 000851
14.96 4.37 0.0455 -0.30 14.96 000852
14.98 3.86 0.0563 -0.30 14.98 000853
15.00 6.29 0.0741 -0.20 15.00 000854
15.02 10.28 0.092 -0.30 15.02 000855
15.04 14.27 0.092 -0.30 15.04 000856
15.06 17.53 0.091 -0.30 15.06 000857
15.08 17.81 0.0845 -0.30 15.08 000858
15.10 17.41 0.078 -0.30 15.10 000858
15.12 17.21 0.075 -0.30 15.12 000868
15.14 17.01 0.072 -0.20 15.14 000868
15.16 16.89 0.076 -0.20 15.16 000869
15.18 16.58 0.079 -0.20 15.18 000870
15.20 16.23 0.081 -0.20 15.20 000871
15.22 16.19 0.086 -0.20 15.22 000872
15.24 16.36 0.079 -0.20 15.24 000873
15.26 16.95 0.075 -0.20 15.26 000874
15.28 17.83 0.069 -0.20 15.28 000875
15.30 18.4 0.066 -0.20 15.30 000876
15.32 18.52 0.063 -0.20 15.32 000876
15.34 18.84 0.066 -0.20 15.34 000877
15.36 20.52 0.063 -0.20 15.36 000878
15.38 22.06 0.059 -0.20 15.38 000879
15.40 23.28 0.066 -0.20 15.40 000880
15.42 24.42 0.079 -0.20 15.42 000881
15.44 24.89 0.093 -0.20 15.44 000882
15.46 24.75 0.094 -0.30 15.46 000883
15.48 25.05 0.108 -0.20 15.48 000884
15.50 25.02 0.106 -0.30 15.50 000885
15.52 24.77 0.109 -0.50 15.52 000886
15.54 24.71 0.112 -0.50 15.54 000887
15.56 24.76 0.116 -0.50 15.56 000887
15.58 24.78 0.122 -0.50 15.58 000888
15.60 24.78 0.131 -0.50 15.60 000889
15.62 24.8 0.137 -0.50 15.62 000890
15.64 24.67 0.145 -0.50 15.64 000891
15.66 24.68 0.148 -0.50 15.66 000892
15.68 24.6 0.152 -0.50 15.68 000893
15.70 24.58 0.153 -0.50 15.70 000894
15.72 24.76 0.156 -0.50 15.72 000895
15.74 24.8 0.157 -0.50 15.74 000896
15.76 24.43 0.157 -0.50 15.76 000897
15.78 24.22 0.157 -0.50 15.78 000897
15.80 23.59 0.156 -0.50 15.80 000898
15.82 22.96 0.155 -0.50 15.82 000899
15.84 22.53 0.154 -0.50 15.84 000900
15.86 22.43 0.154 -0.50 15.86 000901
15.88 22.63 0.155 -0.50 15.88 000902
15.90 22.65 0.15 -0.50 15.90 000903
15.92 22.63 0.15 -0.50 15.92 000904
15.94 22.72 0.149 -0.50 15.94 000905
15.96 22.73 0.148 -0.50 15.96 000906
15.98 22.78 0.147 -0.50 15.98 000906
16.00 23.19 0.145 -0.50 16.00 000907
16.02 23.98 0.148 -0.50 16.02 000908
16.04 24.25 0.144 -0.50 16.04 000909
16.06 24.17 0.143 -0.50 16.06 000910
16.08 23.72 0.1225 -0.50 16.08 000917
16.10 23.27 0.102 -0.50 16.10 000918
16.12 23.39 0.103 -0.50 16.12 000919
16.14 23.56 0.103 -0.50 16.14 000920
16.16 24.01 0.105 -0.50 16.16 000921
16.18 24.62 0.104 -0.50 16.18 000922
16.20 24.66 0.107 -0.50 16.20 000923
16.22 24.31 0.113 -0.50 16.22 000924
16.24 24.13 0.117 -0.50 16.24 000925
16.26 24.16 0.123 -0.50 16.26 000926
16.28 24.26 0.126 -0.50 16.28 000927
16.30 24.2 0.13 -0.50 16.30 000928
16.32 23.98 0.133 -0.50 16.32 000928
16.34 23.65 0.136 -0.50 16.34 000929
16.36 22.94 0.138 -0.50 16.36 000930
16.38 22.12 0.137 -0.50 16.38 000931
16.40 21.63 0.138 -0.50 16.40 000932
16.42 21.39 0.128 -0.50 16.42 000939
16.44 21.15 0.118 -0.50 16.44 000940
16.46 21.07 0.122 -0.50 16.46 000941
16.48 20.95 0.122 -0.50 16.48 000942
16.50 20.67 0.122 -0.50 16.50 000942
16.52 20.18 0.124 -0.50 16.52 000943
16.54 19.53 0.127 -0.50 16.54 000944
16.56 19.32 0.127 -0.50 16.56 000945
16.58 19.27 0.124 -0.50 16.58 000946
16.60 19.35 0.122 -0.50 16.60 000947
16.62 19.2 0.121 -0.50 16.62 000948
16.64 19.25 0.119 -0.50 16.64 000949
16.66 19.3 0.117 -0.50 16.66 000950
16.68 19.17 0.117 -0.50 16.68 000951
16.70 18.51 0.114 -0.50 16.70 000951
16.72 18.1 0.112 -0.50 16.72 000952
16.74 17.22 0.11 -0.50 16.74 000953
16.76 16.54 0.109 -0.50 16.76 000954
16.78 15.67 0.105 -0.50 16.78 000955
16.80 15.05 0.104 -0.50 16.80 000956
16.82 14.25 0.105 -0.50 16.82 000957
16.84 13.25 0.104 -0.50 16.84 000958
16.86 12.73 0.103 -0.50 16.86 000959
16.88 12.26 0.10 -0.50 16.88 000959
16.90 12.15 0.10 -0.50 16.90 000960
16.92 11.77 0.102 -0.50 16.92 000961
16.94 11.54 0.103 -0.50 16.94 000962
16.96 11.34 0.101 -0.50 16.96 000963
16.98 11.38 0.103 -0.50 16.98 000964
17.00 11.32 0.098 -0.50 17.00 000965
17.02 11.21 0.093 -0.50 17.02 000966
17.04 11.12 0.09 -0.50 17.04 000967
17.06 10.94 0.088 -0.50 17.06 000967
17.08 10.7 0.085 -0.50 17.08 000968
17.10 10.5 0.08 -0.50 17.10 000969
17.12 10.33 0.081 -0.50 17.12 000970
17.14 10.26 0.082 -0.50 17.14 000971
17.16 10.44 0.082 -0.50 17.16 000972
17.18 10.59 0.082 -0.50 17.18 000973
17.20 10.58 0.084 -0.50 17.20 000974
17.22 10.26 0.086 -0.50 17.22 000975
17.24 9.74 0.082 -0.50 17.24 000975
17.26 9.55 0.08 -0.50 17.26 000976
17.28 9.46 0.076 -0.50 17.28 000977
17.30 9.36 0.063 -0.50 17.30 000986
17.32 9.26 0.06 -0.50 17.32 000987
17.34 9.01 0.059 -0.50 17.34 000988
17.36 8.98 0.058 -0.50 17.36 000989
17.38 9.38 0.059 -0.50 17.38 000990
17.40 9.85 0.062 -0.50 17.40 000991
17.42 10.53 0.062 -0.50 17.42 000992
17.44 10.98 0.065 -0.50 17.44 000993
17.46 11.32 0.066 -0.50 17.46 000993
17.48 11.19 0.066 -0.50 17.48 000994
17.50 10.69 0.067 -0.50 17.50 000995
17.52 10.27 0.066 -0.50 17.52 000996
17.54 10.12 0.066 -0.50 17.54 000997
17.56 10.26 0.07 -0.50 17.56 000998
17.58 10.61 0.076 -0.50 17.58 000999
17.60 11.19 0.085 -0.50 17.60 001000
17.62 11.76 0.086 -0.50 17.62 001001
17.64 12.66 0.084 -0.50 17.64 001001
17.66 13.05 0.081 -0.50 17.66 001002
17.68 13.09 0.08 -0.50 17.68 001003
17.70 12.92 0.079 -0.50 17.70 001004
17.72 12.46 0.081 -0.50 17.72 001005
17.74 11.71 0.084 -0.50 17.74 001006
17.76 11.09 0.086 -0.50 17.76 001007
17.78 10.49 0.085 -0.50 17.78 001008
17.80 9.86 0.083 -0.50 17.80 001009
17.82 9.39 0.082 -0.50 17.82 001009
17.84 9.36 0.083 -0.50 17.84 001010
17.86 9.71 0.089 -0.50 17.86 001011
17.88 10.39 0.091 -0.50 17.88 001012
17.90 11.18 0.09 -0.50 17.90 001013
17.92 11.79 0.088 -0.50 17.92 001014
17.94 11.93 0.087 -0.50 17.94 001015
17.96 11.81 0.081 -0.50 17.96 001016
17.98 11.49 0.076 -0.50 17.98 001017
18.00 10.91 0.071 -0.50 18.00 001017
18.02 10.49 0.068 -0.50 18.02 001018
18.04 10.04 0.066 -0.50 18.04 001019
18.06 9.62 0.063 -0.50 18.06 001020
18.08 9.46 0.063 -0.50 18.08 001021
18.10 9.31 0.064 -0.50 18.10 001022
18.12 9.43 0.063 -0.50 18.12 001023
18.14 9.95 0.071 -0.50 18.14 001024
18.16 10.45 0.075 -0.50 18.16 001025
18.18 11.07 0.09 -0.50 18.18 001025
18.20 11.19 0.084 -0.50 18.20 001026
18.22 11.27 0.081 -0.50 18.22 001027
18.24 11.32 0.079 -0.50 18.24 001028
18.26 11.55 0.068 -0.50 18.26 001037
18.28 11.78 0.057 -0.50 18.28 001038
18.30 12.29 0.057 -0.50 18.30 001039
18.32 13.64 0.055 -0.50 18.32 001040
18.34 14.6 0.053 -0.50 18.34 001041
18.36 15.12 0.056 -0.50 18.36 001042
18.38 15.19 0.06 -0.50 18.38 001042
18.40 15.08 0.064 -0.50 18.40 001043
18.42 14.65 0.064 -0.50 18.42 001044
18.44 14.16 0.063 -0.50 18.44 001045
18.46 13.4 0.069 -0.50 18.46 001046
18.48 13.25 0.074 -0.50 18.48 001047
18.50 13.98 0.081 -0.50 18.50 001048
18.52 14.67 0.086 -0.50 18.52 001049
18.54 15.34 0.089 -0.50 18.54 001050
18.56 15.25 0.089 -0.50 18.56 001051
18.58 14.53 0.10 -0.50 18.58 001051
18.60 14.06 0.098 -0.50 18.60 001052
18.62 13.49 0.093 -0.50 18.62 001053
18.64 12.84 0.091 -0.50 18.64 001054
18.66 12.34 0.096 -0.50 18.66 001055
18.68 12.02 0.096 -0.50 18.68 001056
18.70 11.93 0.093 -0.50 18.70 001057
18.72 12.17 0.089 -0.50 18.72 001058
18.74 13.19 0.087 -0.50 18.74 001058
18.76 14.36 0.086 -0.30 18.76 001059
18.78 15.62 0.0855 -0.50 18.78 001060
18.80 16.88 0.0898 -0.50 18.80 001061
18.82 17.77 0.0964 -0.30 18.82 001062
18.84 17.73 0.103 -0.50 18.84 001063
18.86 18.08 0.105 -0.50 18.86 001064
18.88 18.73 0.1041 -0.50 18.88 001065
18.90 19.59 0.1039 -0.50 18.90 001066
18.92 20.73 0.1053 -0.50 18.92 001067
18.94 22.18 0.1077 -0.50 18.94 001068
18.96 23.93 0.11 -0.50 18.96 001068
18.98 26.2 0.106 -0.30 18.98 001069
19.00 28.91 0.102 -0.50 19.00 001070
19.02 31.83 0.0975 -0.50 19.02 001071
19.04 34.76 0.093 -0.50 19.04 001072
19.06 36.52 0.096 -0.50 19.06 001073
19.08 37.42 0.102 -0.50 19.08 001074
19.10 37.98 0.107 -0.50 19.10 001075
19.12 38.19 0.126 -0.50 19.12 001076
19.14 37.73 0.14 -0.50 19.14 001077
19.16 37.17 0.151 -0.50 19.16 001078
19.18 36.91 0.161 -0.50 19.18 001079
19.20 37.41 0.169 -0.50 19.20 001080
19.22 38.76 0.179 -0.50 19.22 001081
19.24 40.51 0.165 -0.50 19.24 001090
19.26 42.25 0.151 -0.30 19.26 001091
19.28 43.51 0.161 -0.30 19.28 001092
19.30 44.69 0.17 -0.30 19.30 001093
19.32 45.73 0.179 -0.30 19.32 001094
19.34 46.42 0.185 -0.30 19.34 001095
19.36 47.15 0.193 -0.30 19.36 001096
19.38 47.57 0.206 -0.30 19.38 001097
19.40 47.75 0.218 -0.30 19.40 001098
19.42 47.85 0.229 -0.50 19.42 001099
19.44 47.53 0.237 -0.50 19.44 001099
19.46 46.96 0.246 -0.50 19.46 001100
19.48 46.11 0.254 -0.50 19.48 001101
19.50 45.2 0.257 -0.50 19.50 001102
19.52 43.91 0.267 -0.50 19.52 001103
19.54 42.42 0.274 -0.30 19.54 001104
19.56 41.56 0.272 -0.30 19.56 001105
19.58 40.81 0.27 -0.30 19.58 001106
19.60 40.34 0.273 -0.30 19.60 001107
19.62 40.05 0.272 -0.30 19.62 001108
19.64 39.77 0.268 -0.30 19.64 001109
19.66 39.75 0.267 -0.30 19.66 001110
19.68 39.53 0.261 -0.30 19.68 001110
19.70 39.55 0.255 -0.50 19.70 001111
19.72 40.09 0.249 -0.50 19.72 001112
19.74 40.85 0.242 -0.50 19.74 001113
19.76 41.31 0.239 -0.50 19.76 001114
19.78 41.69 0.242 -0.50 19.78 001115
19.80 42.17 0.247 -0.50 19.80 001116
19.82 42.06 0.243 -0.50 19.82 001117
19.84 41.71 0.239 -0.50 19.84 001118
19.86 40.81 0.239 -0.50 19.86 001119
19.88 39.89 0.239 -0.50 19.88 001120
19.90 38.98 0.243 -0.50 19.90 001121
19.92 38.05 0.249 -0.50 19.92 001122
19.94 37.4 0.254 -0.50 19.94 001123
19.96 36.77 0.255 -0.50 19.96 001123
19.98 36.66 0.255 -0.50 19.98 001124
20.00 36.87 0.252 -0.50 20.00 001125
20.02 37.09 0.244 -0.50 20.02 001126
20.04 36.99 0.238 -0.50 20.04 001127
20.06 36.93 0.231 -0.50 20.06 001128
20.08 36.85 0.227 -0.50 20.08 001129
20.10 36.88 0.226 -0.50 20.10 001130
20.12 36.75 0.223 -0.50 20.12 001131
20.14 36.34 0.22 -0.50 20.14 001132
20.16 35.52 0.218 -0.50 20.16 001133
20.18 34.62 0.219 -0.50 20.18 001134
20.20 34.14 0.221 -0.50 20.20 001135
20.22 34.16 0.2045 -0.50 20.22 001144
20.24 34.17 0.188 -0.50 20.24 001145
20.26 34.6 0.196 -0.50 20.26 001146
20.28 35.1 0.201 -0.50 20.28 001147
20.30 35.82 0.20 -0.50 20.30 001148
20.32 36.47 0.199 -0.50 20.32 001149
20.34 36.88 0.198 -0.50 20.34 001150
20.36 37.59 0.194 -0.30 20.36 001151
20.38 38.14 0.192 -0.30 20.38 001151
20.40 38.42 0.196 -0.30 20.40 001152
20.42 38.64 0.201 -0.30 20.42 001153
20.44 38.7 0.202 -0.30 20.44 001154
20.46 38.46 0.205 -0.30 20.46 001155
20.48 38.41 0.211 -0.30 20.48 001156
20.50 38.83 0.219 -0.30 20.50 001157
20.52 39.24 0.221 -0.30 20.52 001158
20.54 39.51 0.224 -0.30 20.54 001159
20.56 39.54 0.226 -0.30 20.56 001160
20.58 39.73 0.226 -0.30 20.58 001161
20.60 40 0.226 -0.30 20.60 001162
20.62 40.26 0.224 -0.30 20.62 001163
20.64 40.63 0.223 -0.30 20.64 001164
20.66 40.92 0.224 -0.30 20.66 001164
20.68 40.41 0.224 -0.30 20.68 001165
20.70 39.83 0.229 -0.30 20.70 001166
20.72 39.55 0.232 -0.30 20.72 001167
20.74 39.82 0.232 -0.30 20.74 001168
20.76 40.57 0.233 -0.30 20.76 001169
20.78 41.01 0.232 -0.30 20.78 001170
20.80 41.36 0.231 -0.30 20.80 001171
20.82 41.85 0.231 -0.30 20.82 001172
20.84 42.09 0.229 -0.30 20.84 001173
20.86 42.2 0.226 -0.30 20.86 001174
20.88 42.12 0.223 -0.30 20.88 001175
20.90 41.79 0.223 -0.30 20.90 001176
20.92 41.25 0.227 -0.30 20.92 001177
20.94 40.53 0.234 -0.30 20.94 001177
20.96 39.85 0.237 -0.30 20.96 001178
20.98 39.11 0.238 -0.30 20.98 001179
21.00 38.36 0.237 -0.30 21.00 001180
21.02 37.67 0.235 -0.30 21.02 001181
21.04 37.43 0.232 -0.30 21.04 001182
21.06 37.3 0.23 -0.30 21.06 001183
21.08 36.76 0.226 -0.30 21.08 001184
21.10 36.26 0.22 -0.30 21.10 001185
21.12 35.78 0.215 -0.30 21.12 001186
21.14 35.32 0.209 -0.30 21.14 001187
21.16 34.8 0.206 -0.30 21.16 001188
21.18 34.08 0.1895 -0.30 21.18 001197
21.20 33.35 0.173 -0.30 21.20 001198
21.22 33.83 0.179 -0.30 21.22 001199
21.24 34.19 0.186 -0.30 21.24 001200
21.26 34.38 0.186 -0.30 21.26 001201
21.28 34.29 0.191 -0.30 21.28 001202
21.30 33.59 0.195 -0.30 21.30 001203
21.32 32.82 0.196 -0.30 21.32 001204
21.34 30.95 0.198 -0.30 21.34 001204
21.36 28.54 0.20 -0.30 21.36 001205
21.38 26.63 0.199 -0.30 21.38 001206
21.40 24.83 0.191 -0.30 21.40 001207
21.42 23.78 0.185 -0.30 21.42 001208
21.44 22.23 0.18 -0.30 21.44 001209
21.46 20.89 0.175 -0.30 21.46 001210
21.48 20.4 0.1739 -0.30 21.48 001211
21.50 20.87 0.1749 -0.30 21.50 001212
21.52 21.81 0.1762 -0.30 21.52 001213
21.54 22.75 0.1776 -0.30 21.54 001214
21.56 23.17 0.179 -0.30 21.56 001214
21.58 22.5 0.17 -0.30 21.58 001215
21.60 21.65 0.1605 -0.30 21.60 001216
21.62 21.09 0.1523 -0.30 21.62 001217
21.64 21.22 0.1501 -0.30 21.64 001218
21.66 22.38 0.1516 -0.30 21.66 001219
21.68 24.23 0.1548 -0.30 21.68 001220
21.70 26.41 0.158 -0.30 21.70 001221
21.72 28.6 0.157 -0.50 21.72 001222
21.74 30.83 0.147 -0.50 21.74 001223
21.76 32.94 0.137 -0.30 21.76 001224
21.78 34.09 0.137 -0.30 21.78 001225
21.80 35.03 0.134 -0.50 21.80 001225
21.82 35.33 0.139 -0.30 21.82 001226
21.84 35.28 0.142 -0.30 21.84 001227
21.86 35.14 0.148 -0.30 21.86 001228
21.88 34.86 0.154 -0.30 21.88 001229
21.90 34.5 0.168 -0.30 21.90 001230
21.92 34.17 0.181 -0.50 21.92 001231
21.94 33.67 0.191 -0.50 21.94 001232
21.96 33.19 0.197 -0.50 21.96 001233
21.98 33.08 0.201 -0.50 21.98 001234
22.00 33.04 0.203 -0.50 22.00 001235
22.02 32.42 0.204 -0.50 22.02 001236
22.04 31.14 0.205 -0.50 22.04 001236
22.06 29.71 0.203 -0.50 22.06 001237
22.08 28.16 0.20 -0.50 22.08 001238
22.10 27 0.197 -0.50 22.10 001239
22.12 25.54 0.194 -0.50 22.12 001240
22.14 24.75 0.191 -0.50 22.14 001241
22.16 23.75 0.1745 -0.50 22.16 001250
22.18 22.75 0.158 -0.50 22.18 001251
22.20 22.44 0.154 -0.50 22.20 001252
22.22 22.03 0.15 -0.50 22.22 001253
22.24 21.01 0.146 -0.50 22.24 001254
22.26 19.96 0.143 -0.50 22.26 001255
22.28 18 0.142 -0.50 22.28 001256
22.30 16 0.146 -0.50 22.30 001257
22.32 14.14 0.15 -0.50 22.32 001257
22.34 14.03 0.164 -0.50 22.34 001258
22.36 15.65 0.169 -0.50 22.36 001259
22.38 17.02 0.172 -0.50 22.38 001260
22.40 17.99 0.169 -0.50 22.40 001261
22.42 19.2 0.158 -0.50 22.42 001262
22.44 19.75 0.151 -0.50 22.44 001263
22.46 20.48 0.136 -0.50 22.46 001264
22.48 20.99 0.124 -0.50 22.48 001265
22.50 21.66 0.106 -0.50 22.50 001266
22.52 22.4 0.097 -0.50 22.52 001267
22.54 23.14 0.092 -0.50 22.54 001267
22.56 23.12 0.09 -0.50 22.56 001268
22.58 22.76 0.095 -0.50 22.58 001269
22.60 22.14 0.102 -0.50 22.60 001270
22.62 21.64 0.106 -0.50 22.62 001271
22.64 21.02 0.115 -0.50 22.64 001272
22.66 20.56 0.127 -0.50 22.66 001273
22.68 20.93 0.133 -0.50 22.68 001274
22.70 22.22 0.132 -0.50 22.70 001275
22.72 23.03 0.134 -0.50 22.72 001276
22.74 22.88 0.134 -0.50 22.74 001277
22.76 22.1 0.132 -0.50 22.76 001277
22.78 21.43 0.131 -0.50 22.78 001278
22.80 20.94 0.13 -0.50 22.80 001279
22.82 20.62 0.13 -0.50 22.82 001280
22.84 20.23 0.132 -0.50 22.84 001281
22.86 20.07 0.133 -0.50 22.86 001282
22.88 20.17 0.134 -0.50 22.88 001283
22.90 20.51 0.134 -0.50 22.90 001284
22.92 21.08 0.131 -0.50 22.92 001285
22.94 21.64 0.128 -0.50 22.94 001286
22.96 22.06 0.127 -0.50 22.96 001286
22.98 22.39 0.127 -0.50 22.98 001287
23.00 22.39 0.128 -0.50 23.00 001288
23.02 21.8 0.129 -0.50 23.02 001289
23.04 21.03 0.128 -0.50 23.04 001290
23.06 19.61 0.125 -0.50 23.06 001291
23.08 18.19 0.13 -0.50 23.08 001292
23.10 17.22 0.127 -0.50 23.10 001293
23.12 16.99 0.1205 -0.50 23.12 001302
23.14 16.75 0.114 -0.50 23.14 001303
23.16 15.26 0.119 -0.50 23.16 001304
23.18 12.36 0.121 -0.50 23.18 001305
23.20 10.48 0.123 -0.50 23.20 001305
23.22 8.96 0.1295 -0.50 23.22 001306
23.24 10.1 0.1384 -0.50 23.24 001307
23.26 11.95 0.1477 -0.50 23.26 001308
23.28 14.17 0.157 -0.50 23.28 001309
23.30 16.38 0.1478 -0.50 23.30 001310
23.32 17.02 0.1394 -0.50 23.32 001311
23.34 16.78 0.1317 -0.50 23.34 001312
23.36 16.85 0.1256 -0.50 23.36 001313
23.38 17.25 0.1214 -0.50 23.38 001314
23.40 17.8 0.1182 -0.50 23.40 001314
23.42 18.35 0.115 -0.50 23.42 001315
23.44 18.76 0.1128 -0.50 23.44 001316
23.46 19 0.1114 -0.50 23.46 001317
23.48 19.22 0.11 -0.50 23.48 001318
23.50 19.41 0.107 -0.50 23.50 001319
23.52 19.53 0.10 -0.30 23.52 001320
23.54 19.62 0.093 -0.30 23.54 001321
23.56 19.61 0.09 -0.30 23.56 001322
23.58 19.6 0.087 -0.30 23.58 001323
23.60 19.53 0.085 -0.30 23.60 001324
23.62 19.24 0.081 -0.30 23.62 001324
23.64 18.69 0.08 -0.30 23.64 001325
23.66 17.77 0.082 -0.30 23.66 001326
23.68 17.02 0.081 -0.30 23.68 001327
23.70 16.03 0.083 -0.30 23.70 001328
23.72 14.87 0.085 -0.20 23.72 001329
23.74 14.13 0.087 -0.20 23.74 001330
23.76 13.23 0.0875 -0.20 23.76 001331
23.78 12.41 0.0883 -0.20 23.78 001332
23.80 11.85 0.089 -0.20 23.80 001332
23.82 11.51 0.089 -0.20 23.82 001333
23.84 11.45 0.091 -0.20 23.84 001334
23.86 11.57 0.093 -0.20 23.86 001335
23.88 11.84 0.094 -0.20 23.88 001336
23.90 12.24 0.09 -0.20 23.90 001337
23.92 12.65 0.085 -0.20 23.92 001338
23.94 13.05 0.0805 -0.20 23.94 001339
23.96 12.52 0.0763 -0.20 23.96 001340
23.98 11.35 0.0731 -0.20 23.98 001340
24.00 9.92 0.0733 -0.20 24.00 001341
24.02 7.93 0.0752 -0.20 24.02 001342
24.04 6.98 0.0841 0.00 24.04 001343
24.06 8.5 0.0945 0.00 24.06 001344
24.08 11.26 0.1058 0.00 24.08 001345
24.10 14.02 0.117 0.00 24.10 001354
24.12 15.69 0.112 0.00 24.12 001355
24.14 16.38 0.0959 0.00 24.14 001356
24.16 16.14 0.0831 0.00 24.16 001357
24.18 15.3 0.0737 0.00 24.18 001358
24.20 14.46 0.0642 0.00 24.20 001359
24.22 13.17 0.0611 0.00 24.22 001359
24.24 11.91 0.059 0.00 24.24 001360
24.26 10.74 0.057 0.00 24.26 001361
24.28 9.72 0.054 0.10 24.28 001362
24.30 8.9 0.053 0.00 24.30 001363
24.32 8.35 0.052 0.10 24.32 001364
24.34 7.92 0.05 0.10 24.34 001365
24.36 7.48 0.0465 0.20 24.36 001366
24.38 7.03 0.043 0.20 24.38 001366
24.40 6.73 0.04 0.20 24.40 001367
24.42 6.49 0.04 0.20 24.42 001368
24.44 6.42 0.04 0.20 24.44 001369
24.46 6.74 0.041 0.20 24.46 001370
24.48 7.27 0.043 0.20 24.48 001371
24.50 7.17 0.049 0.20 24.50 001372
24.52 6.66 0.045 0.20 24.52 001373
24.54 5.9 0.039 0.20 24.54 001374
24.56 5.25 0.036 0.20 24.56 001374
24.58 5.36 0.037 0.20 24.58 001375
24.60 5.35 0.049 0.20 24.60 001376
24.62 5.03 0.059 0.20 24.62 001377
24.64 4.71 0.062 0.20 24.64 001378
24.66 4.82 0.065 0.20 24.66 001379
24.68 5.2 0.076 0.20 24.68 001380
24.70 5.52 0.076 0.20 24.70 001381
24.72 5.52 0.076 0.20 24.72 001382
24.74 5.77 0.069 0.20 24.74 001382
24.76 6.04 0.065 0.20 24.76 001383
24.78 6.22 0.064 0.20 24.78 001384
24.80 6.22 0.068 0.20 24.80 001385
24.82 6.25 0.072 0.20 24.82 001386
24.84 6.62 0.068 0.20 24.84 001387
24.86 6.63 0.064 0.20 24.86 001388
24.88 6.63 0.06 0.20 24.88 001389
24.90 6.73 0.058 0.20 24.90 001389
24.92 7.04 0.062 0.20 24.92 001390
24.94 7.12 0.067 0.20 24.94 001391
24.96 7.22 0.069 0.20 24.96 001392
24.98 7.43 0.072 0.20 24.98 001393
25.00 7.32 0.071 0.20 25.00 001394
25.02 7.04 0.069 0.20 25.02 001395
25.04 6.84 0.07 0.20 25.04 001396
25.06 6.77 0.072 0.20 25.06 001397
25.08 6.93 0.067 0.20 25.08 001401
25.10 6.78 0.066 0.20 25.10 001402
25.12 6.68 0.066 0.20 25.12 001403
25.14 6.45 0.067 0.20 25.14 001403
25.16 6.16 0.068 0.20 25.16 001404
25.18 5.85 0.066 0.20 25.18 001405
25.20 4.99 0.062 0.20 25.20 001406
25.22 4.19 0.059 0.20 25.22 001407
25.24 3.37 0.06 0.20 25.24 001408
25.26 2.99 0.065 0.20 25.26 001409
25.28 2.68 0.076 0.20 25.28 001410
25.30 2.73 0.079 0.20 25.30 001418
25.32 2.77 0.082 0.20 25.32 001419
25.34 2.53 0.076 0.20 25.34 001420
25.36 2.24 0.075 0.20 25.36 001421
25.38 2.03 0.07 0.20 25.38 001422
25.40 1.92 0.064 0.20 25.40 001423
25.42 2.15 0.062 0.20 25.42 001424
25.44 2.7 0.059 0.20 25.44 001425
25.46 2.87 0.052 0.20 25.46 001426
25.48 2.75 0.046 0.20 25.48 001426
25.50 2.45 0.046 0.20 25.50 001427
25.52 2.29 0.046 0.20 25.52 001428
25.54 2.3 0.045 0.20 25.54 001429
25.56 2.49 0.04 0.20 25.56 001430
25.58 2.52 0.043 0.20 25.58 001431
25.60 2.32 0.041 0.20 25.60 001432
25.62 2.08 0.039 0.20 25.62 001433
25.64 1.81 0.044 0.20 25.64 001433
25.66 1.63 0.047 0.20 25.66 001434
25.68 1.62 0.043 0.20 25.68 001435
25.70 1.7 0.041 0.20 25.70 001436
25.72 1.9 0.038 0.20 25.72 001437
25.74 1.91 0.038 0.20 25.74 001438
25.76 1.8 0.04 0.20 25.76 001439
25.78 1.77 0.041 0.20 25.78 001440
25.80 1.75 0.039 0.20 25.80 001440
25.82 1.8 0.037 0.20 25.82 001441
25.84 1.88 0.0375 0.20 25.84 001442
25.86 2 0.038 0.20 25.86 001443
25.88 2.12 0.038 0.20 25.88 001444
25.90 2.02 0.0335 0.20 25.90 001445
25.92 1.84 0.0318 0.20 25.92 001446
25.94 1.75 0.0319 0.20 25.94 001447
25.96 1.76 0.0324 0.20 25.96 001447
25.98 1.87 0.033 0.20 25.98 001448
26.00 1.98 0.034 0.20 26.00 001449
26.02 1.88 0.036 0.20 26.02 001450
26.04 1.81 0.038 0.20 26.04 001451
26.06 1.73 0.037 0.20 26.06 001452
26.08 1.65 0.036 0.20 26.08 001453
26.10 1.62 0.032 0.20 26.10 001454
26.12 1.58 0.028 0.20 26.12 001454
26.14 1.62 0.027 0.20 26.14 001455
26.16 1.63 0.026 0.20 26.16 001456
26.18 1.63 0.027 0.20 26.18 001457
26.20 1.76 0.0263 0.10 26.20 001458
26.22 1.92 0.0261 0.20 26.22 001459
26.24 2.08 0.0266 0.10 26.24 001460
26.26 2.23 0.0283 0.10 26.26 001461
26.28 2.16 0.0306 0.10 26.28 001470
26.30 2.1 0.033 0.20 26.30 001470
26.32 2.15 0.0335 0.10 26.32 001471
26.34 2.28 0.034 0.10 26.34 001472
26.36 2.43 0.0338 0.10 26.36 001473
26.38 2.58 0.036 0.10 26.38 001474
26.40 2.64 0.0396 0.20 26.40 001475
26.42 2.5 0.0438 0.10 26.42 001476
26.44 2.36 0.048 0.10 26.44 001477
26.46 2.22 0.0465 0.20 26.46 001477
26.48 2.08 0.0458 0.10 26.48 001478
26.50 2.16 0.045 0.10 26.50 001479
26.52 2.31 0.0435 0.10 26.52 001480
26.54 2.47 0.0438 0.10 26.54 001481
26.56 2.53 0.0459 0.10 26.56 001482
26.58 2.65 0.048 0.10 26.58 001483
26.60 2.9 0.0445 0.10 26.60 001484
26.62 3.15 0.0413 0.10 26.62 001485
26.64 3.19 0.0386 0.10 26.64 001485
26.66 2.72 0.0398 0.10 26.66 001486
26.68 2.4 0.0424 0.10 26.68 001487
26.70 2.18 0.0467 0.10 26.70 001488
26.72 1.96 0.051 0.10 26.72 001489
26.74 2.09 0.05 0.10 26.74 001490
26.76 2.28 0.047 0.10 26.76 001491
26.78 2.17 0.047 0.10 26.78 001492
26.80 2.02 0.047 0.10 26.80 001492
26.82 2.17 0.044 0.10 26.82 001493
26.84 2.22 0.042 0.10 26.84 001494
26.86 2.29 0.038 0.10 26.86 001495
26.88 2.17 0.037 0.10 26.88 001496
26.90 2.16 0.037 0.10 26.90 001497
26.92 2.12 0.034 0.10 26.92 001498
26.94 2.25 0.031 0.10 26.94 001499
26.96 2.67 0.036 0.10 26.96 001499
26.98 2.71 0.032 0.10 26.98 001500
27.00 2.54 0.038 0.10 27.00 001501
27.02 2.55 0.039 0.10 27.02 001502
27.04 2.63 0.044 0.10 27.04 001503
27.06 2.64 0.047 0.10 27.06 001504
27.08 2.63 0.054 0.10 27.08 001505
27.10 2.68 0.057 0.10 27.10 001506
27.12 2.75 0.064 0.10 27.12 001507
27.14 2.82 0.07 0.10 27.14 001507
27.16 2.86 0.081 0.10 27.16 001508
27.18 2.86 0.09 0.10 27.18 001509
27.20 2.88 0.099 0.10 27.20 001510
27.22 2.91 0.105 0.10 27.22 001511
27.24 2.91 0.113 0.10 27.24 001512
27.26 2.9 0.126 0.10 27.26 001521
27.28 2.89 0.139 0.10 27.28 001522
27.30 2.82 0.142 0.10 27.30 001523
27.32 2.79 0.143 0.10 27.32 001523
27.34 2.77 0.143 0.10 27.34 001524
27.36 2.7 0.144 0.10 27.36 001525
27.38 2.64 0.143 0.10 27.38 001526
27.40 2.6 0.135 0.10 27.40 001527
27.42 2.58 0.13 0.10 27.42 001528
27.44 2.54 0.123 0.10 27.44 001529
27.46 2.47 0.118 0.10 27.46 001530
27.48 2.43 0.113 0.10 27.48 001531
27.50 2.45 0.106 0.10 27.50 001531
27.52 2.47 0.099 0.10 27.52 001532
27.54 2.48 0.093 0.10 27.54 001533
27.56 2.5 0.089 0.10 27.56 001534
27.58 2.52 0.084 0.10 27.58 001535
27.60 2.48 0.082 0.20 27.60 001536
27.62 2.4 0.08 0.10 27.62 001537
27.64 2.29 0.079 0.10 27.64 001538
27.66 2.2 0.082 0.20 27.66 001539
27.68 2.09 0.087 0.20 27.68 001539
27.70 2.01 0.092 0.20 27.70 001540
27.72 1.88 0.101 0.20 27.72 001541
27.74 1.83 0.104 0.20 27.74 001542
27.76 1.8 0.10 0.20 27.76 001543
27.78 1.79 0.091 0.20 27.78 001544
27.80 1.79 0.084 0.20 27.80 001545
27.82 1.8 0.073 0.20 27.82 001546
27.84 1.82 0.065 0.20 27.84 001547
27.86 1.81 0.056 0.20 27.86 001547
27.88 1.78 0.05 0.20 27.88 001548
27.90 1.73 0.046 0.20 27.90 001549
27.92 1.66 0.045 0.20 27.92 001550
27.94 1.62 0.045 0.20 27.94 001551
27.96 1.59 0.045 0.20 27.96 001552
27.98 1.57 0.045 0.20 27.98 001553
28.00 1.52 0.045 0.20 28.00 001554
28.02 1.5 0.044 0.20 28.02 001554
28.04 1.49 0.043 0.20 28.04 001555
28.06 1.49 0.042 0.20 28.06 001556
28.08 1.51 0.04 0.20 28.08 001557
28.10 1.55 0.038 0.20 28.10 001558
28.12 1.6 0.036 0.20 28.12 001559
28.14 1.67 0.033 0.20 28.14 001560
28.16 1.76 0.03 0.20 28.16 001561
28.18 1.84 0.031 0.20 28.18 001562
28.20 1.91 0.03 0.20 28.20 001562
28.22 1.91 0.0288 0.20 28.22 001563
28.24 1.89 0.0279 0.10 28.24 001572
28.26 1.96 0.0289 0.20 28.26 001573
28.28 2.48 0.033 0.20 28.28 001574
28.30 3.39 0.0375 0.20 28.30 001575
28.32 4.83 0.042 0.20 28.32 001576
28.34 6.26 0.046 0.20 28.34 001577
28.36 7.44 0.044 0.20 28.36 001578
28.38 8.56 0.042 0.10 28.38 001579
28.40 9.89 0.038 0.20 28.40 001580
28.42 11.22 0.033 0.20 28.42 001580
28.44 12.49 0.031 0.20 28.44 001581
28.46 13.52 0.0315 0.20 28.46 001582
28.48 13.79 0.0363 0.20 28.48 001583
28.50 13.91 0.041 0.10 28.50 001584
28.52 13.68 0.054 0.10 28.52 001585
28.54 13.04 0.065 0.10 28.54 001586
28.56 12.48 0.07 0.10 28.56 001587
28.58 11.5 0.076 0.10 28.58 001588
28.60 10.74 0.078 -0.10 28.60 001589
28.62 10.1 0.082 -0.10 28.62 001589
28.64 9.83 0.084 -0.10 28.64 001590
28.66 9.68 0.081 -0.10 28.66 001591
28.68 9.77 0.079 -0.10 28.68 001592
28.70 10.07 0.078 -0.10 28.70 001593
28.72 10.39 0.077 -0.10 28.72 001594
28.74 11.11 0.075 -0.10 28.74 001595
28.76 11.91 0.073 -0.10 28.76 001596
28.78 13.29 0.071 -0.10 28.78 001597
28.80 14.92 0.073 -0.10 28.80 001598
28.82 17.81 0.075 -0.10 28.82 001598
28.84 20.08 0.082 -0.10 28.84 001599
28.86 21.5 0.084 -0.10 28.86 001600
28.88 22.85 0.092 -0.10 28.88 001601
28.90 23.7 0.097 -0.10 28.90 001602
28.92 24.48 0.098 -0.10 28.92 001603
28.94 25.24 0.104 -0.10 28.94 001604
28.96 25.99 0.11 -0.10 28.96 001605
28.98 26.84 0.116 -0.10 28.98 001606
29.00 27.84 0.12 -0.10 29.00 001607
29.02 28.6 0.126 -0.10 29.02 001608
29.04 29.26 0.134 -0.10 29.04 001609
29.06 30.01 0.141 -0.10 29.06 001610
29.08 30.59 0.143 -0.10 29.08 001611
29.10 31.11 0.15 -0.10 29.10 001612
29.12 31.53 0.157 -0.10 29.12 001613
29.14 32 0.162 -0.10 29.14 001614
29.16 32.92 0.17 -0.10 29.16 001615
29.18 33.75 0.174 -0.10 29.18 001617
29.20 34.5 0.177 -0.10 29.20 001618
29.22 34.49 0.1625 -0.10 29.22 001628
29.24 34.48 0.148 -0.10 29.24 001630
29.26 34.2 0.151 -0.10 29.26 001631
29.28 33.91 0.157 -0.10 29.28 001632
29.30 33.57 0.161 -0.10 29.30 001633
29.32 33.22 0.164 -0.10 29.32 001634
29.34 32.8 0.169 -0.10 29.34 001635
29.36 32.78 0.175 -0.20 29.36 001636
29.38 32.99 0.174 -0.20 29.38 001637
29.40 33.14 0.173 -0.20 29.40 001638
29.42 32.83 0.168 -0.20 29.42 001639
29.44 32.24 0.169 -0.20 29.44 001640
29.46 31.56 0.168 -0.20 29.46 001641
29.48 31.35 0.168 -0.20 29.48 001642
29.50 31.54 0.168 -0.20 29.50 001644
29.52 31.83 0.168 -0.20 29.52 001645
29.54 31.71 0.164 -0.20 29.54 001646
29.56 31.24 0.163 -0.20 29.56 001647
29.58 30.95 0.164 -0.20 29.58 001648
29.60 31.47 0.164 -0.20 29.60 001649
29.62 32.73 0.156 0.00 29.62 001650
29.64 33.96 0.153 0.00 29.64 001651
29.66 34.75 0.157 0.00 29.66 001652
29.68 35.72 0.161 0.00 29.68 001653
29.70 36.66 0.164 0.00 29.70 001654
29.72 37.95 0.16 0.00 29.72 001655
29.74 38.79 0.154 0.00 29.74 001657
29.76 39.25 0.149 0.00 29.76 001658
29.78 39.33 0.15 0.00 29.78 001659
29.80 39.3 0.156 0.00 29.80 001660
29.82 39.25 0.159 0.00 29.82 001661
29.84 39.24 0.162 0.00 29.84 001662
29.86 39.26 0.175 0.00 29.86 001663
29.88 39.13 0.184 0.00 29.88 001664
29.90 38.99 0.193 0.00 29.90 001665
29.92 38.89 0.20 0.00 29.92 001666
29.94 38.74 0.205 0.00 29.94 001667
29.96 38.72 0.206 0.00 29.96 001668
29.98 38.96 0.208 0.00 29.98 001670
30.00 39.48 0.21 0.00 30.00 001671
30.02 40.16 0.212 0.00 30.02 001672
30.04 40.76 0.215 0.00 30.04 001673
30.06 40.4 0.217 0.00 30.06 001674
30.08 40.07 0.222 0.00 30.08 001675
30.10 39.98 0.225 0.00 30.10 001676
30.12 40.04 0.222 0.00 30.12 001677
30.14 40.68 0.218 0.00 30.14 001678
30.16 41.88 0.217 0.00 30.16 001679
30.18 42.1 0.199 0.00 30.18 001691
30.20 42.32 0.181 0.00 30.20 001692
30.22 43.03 0.187 0.00 30.22 001693
30.24 43.77 0.187 0.00 30.24 001694
30.26 44.1 0.19 0.00 30.26 001695
30.28 44.15 0.198 0.00 30.28 001696
30.30 44.15 0.205 0.00 30.30 001697
30.32 44.12 0.214 0.00 30.32 001698
30.34 43.79 0.219 0.00 30.34 001699
30.36 44.2 0.222 0.00 30.36 001701
30.38 44.48 0.227 0.00 30.38 001702
30.40 46.04 0.233 0.00 30.40 001703
30.42 47.12 0.24 0.00 30.42 001704
30.44 48.58 0.24 0.00 30.44 001705
30.46 49.5 0.246 0.00 30.46 001706
30.48 50.19 0.25 0.00 30.48 001707
30.50 50.75 0.25 0.00 30.50 001708
30.52 51.36 0.251 0.00 30.52 001709
30.54 52.27 0.252 0.00 30.54 001710
30.56 52.93 0.247 0.00 30.56 001712
30.58 53.62 0.244 0.00 30.58 001713
30.60 54.05 0.24 0.00 30.60 001714
30.62 54.63 0.236 0.00 30.62 001715
30.64 54.66 0.233 0.20 30.64 001716
30.66 54.62 0.239 0.00 30.66 001717
30.68 54.42 0.255 0.00 30.68 001718
30.70 54.02 0.255 -0.10 30.70 001719
30.72 53.47 0.257 0.00 30.72 001721
30.74 53.08 0.263 0.00 30.74 001722
30.76 52.82 0.265 0.20 30.76 001723
30.78 52.42 0.273 0.10 30.78 001724
30.80 52.26 0.274 0.10 30.80 001725
30.82 51.64 0.272 0.20 30.82 001726
30.84 50.54 0.267 0.10 30.84 001727
30.86 49.52 0.26 0.20 30.86 001728
30.88 48.91 0.265 0.10 30.88 001729
30.90 48.61 0.264 0.10 30.90 001730
30.92 48.19 0.266 0.20 30.92 001732
30.94 47.81 0.264 0.00 30.94 001733
30.96 47.93 0.267 0.20 30.96 001734
30.98 48.23 0.27 0.00 30.98 001735
31.00 48.7 0.272 0.20 31.00 001736
31.02 49.41 0.275 -0.10 31.02 001737
31.04 50.3 0.271 0.20 31.04 001738
31.06 50.81 0.269 0.20 31.06 001739
31.08 51.62 0.268 0.20 31.08 001740
31.10 52.27 0.267 0.30 31.10 001742
31.12 52.74 0.27 0.10 31.12 001743
31.14 52.73 0.2475 0.30 31.14 001758
31.16 52.71 0.225 0.30 31.16 001759
31.18 52.62 0.231 0.30 31.18 001760
31.20 51.82 0.241 0.20 31.20 001761
31.22 50.78 0.242 0.30 31.22 001762
31.24 49.88 0.251 0.30 31.24 001763
31.26 49.1 0.253 0.20 31.26 001764
31.28 48.33 0.256 0.20 31.28 001766
31.30 47.21 0.253 0.30 31.30 001767
31.32 46.55 0.257 0.30 31.32 001768
31.34 45.82 0.252 0.30 31.34 001769
31.36 44.89 0.249 0.20 31.36 001770
31.38 43.55 0.248 0.30 31.38 001771
31.40 42.82 0.245 0.30 31.40 001772
31.42 42.28 0.241 0.20 31.42 001773
31.44 41.86 0.233 0.30 31.44 001774
31.46 41.68 0.229 0.30 31.46 001775
31.48 41.65 0.222 0.30 31.48 001776
31.50 41.55 0.217 0.30 31.50 001777
31.52 41.56 0.214 0.50 31.52 001779
31.54 41.72 0.208 0.50 31.54 001780
31.56 41.93 0.204 0.50 31.56 001781
31.58 42.11 0.202 0.50 31.58 001782
31.60 42.23 0.201 0.50 31.60 001783
31.62 42.43 0.202 0.50 31.62 001784
31.64 42.62 0.198 0.50 31.64 001785
31.66 42.94 0.195 0.50 31.66 001786
31.68 42.81 0.194 0.50 31.68 001787
31.70 42.87 0.195 0.50 31.70 001788
31.72 43.09 0.202 0.50 31.72 001789
31.74 43.39 0.203 0.60 31.74 001791
31.76 43.78 0.207 0.50 31.76 001792
31.78 44.44 0.209 0.50 31.78 001793
31.80 45.53 0.212 0.50 31.80 001794
31.82 46.75 0.218 0.60 31.82 001795
31.84 48.26 0.222 0.50 31.84 001796
31.86 49.52 0.223 0.50 31.86 001797
31.88 49.71 0.228 0.50 31.88 001798
31.90 49.32 0.228 0.80 31.90 001799
31.92 48.69 0.232 0.60 31.92 001800
31.94 47.72 0.237 0.80 31.94 001802
31.96 46.29 0.239 0.80 31.96 001803
31.98 44.68 0.2295 0.80 31.98 001812
32.00 43.06 0.22 0.80 32.00 001813
32.02 42.09 0.222 0.80 32.02 001814
32.04 41.61 0.223 0.80 32.04 001816
32.06 41.1 0.218 0.80 32.06 001817
32.08 40.84 0.211 0.80 32.08 001818
32.10 40.63 0.204 0.80 32.10 001819
32.12 40.35 0.19 0.80 32.12 001820
32.14 39.99 0.183 0.80 32.14 001821
32.16 39.45 0.179 0.80 32.16 001822
32.18 38.53 0.168 0.80 32.18 001823
32.20 37.8 0.163 0.80 32.20 001824
32.22 37.36 0.162 0.80 32.22 001825
32.24 37.27 0.164 0.80 32.24 001826
32.26 37.02 0.155 0.80 32.26 001846
32.28 36.76 0.146 0.80 32.28 001847
32.30 36.67 0.151 0.80 32.30 001848
32.32 35.88 0.156 0.70 32.32 001849
32.34 35.34 0.157 0.70 32.34 001850
32.36 34.73 0.159 0.70 32.36 001851
32.38 34.37 0.162 0.70 32.38 001852
32.40 34.3 0.164 0.70 32.40 001853
32.42 34.44 0.166 0.70 32.42 001854
32.44 34.85 0.17 0.70 32.44 001855
32.46 35.23 0.172 0.70 32.46 001856
32.48 35.47 0.172 0.70 32.48 001857
32.50 35.52 0.171 0.70 32.50 001859
32.52 35.51 0.175 0.70 32.52 001860
32.54 35.53 0.177 0.70 32.54 001861
32.56 35.57 0.183 0.70 32.56 001862
32.58 35.75 0.188 0.70 32.58 001863
32.60 35.83 0.19 0.70 32.60 001864
32.62 35.88 0.19 0.70 32.62 001865
32.64 35.75 0.19 0.70 32.64 001866
32.66 35.44 0.189 0.70 32.66 001867
32.68 35.2 0.192 0.70 32.68 001868
32.70 34.79 0.194 0.70 32.70 001869
32.72 34.55 0.197 0.70 32.72 001870
32.74 34.46 0.199 0.70 32.74 001872
32.76 34.44 0.20 0.70 32.76 001873
32.78 34.4 0.201 0.70 32.78 001874
32.80 34.48 0.201 0.70 32.80 001875
32.82 34.68 0.199 0.70 32.82 001876
32.84 34.86 0.196 0.70 32.84 001877
32.86 35.05 0.194 0.70 32.86 001878
32.88 35.08 0.191 0.70 32.88 001879
32.90 35.03 0.189 0.90 32.90 001880
32.92 34.98 0.189 0.90 32.92 001881
32.94 35.05 0.189 0.90 32.94 001882
32.96 35.12 0.187 0.90 32.96 001883
32.98 35.21 0.188 0.90 32.98 001885
33.00 35.37 0.186 0.90 33.00 001886
33.02 35.64 0.186 0.90 33.02 001887
33.04 36.11 0.185 0.90 33.04 001888
33.06 36.71 0.183 0.90 33.06 001889
33.08 37.24 0.181 0.90 33.08 001890
33.10 37.33 0.179 0.90 33.10 001891
33.12 37.16 0.178 0.90 33.12 001892
33.14 36.75 0.18 0.90 33.14 001893
33.16 36.63 0.182 0.90 33.16 001894
33.18 36.63 0.184 0.90 33.18 001895
33.20 36.8 0.187 0.90 33.20 001896
33.22 36.93 0.182 0.90 33.22 001908
33.24 37.05 0.177 0.90 33.24 001909
33.26 37.53 0.179 0.90 33.26 001910
33.28 37.78 0.181 0.90 33.28 001911
33.30 37.93 0.182 0.90 33.30 001912
33.32 37.99 0.183 0.90 33.32 001913
33.34 37.99 0.185 0.90 33.34 001914
33.36 37.79 0.185 0.90 33.36 001915
33.38 37.65 0.186 0.70 33.38 001916
33.40 37.7 0.191 0.90 33.40 001917
33.42 37.79 0.191 0.90 33.42 001918
33.44 38.02 0.193 0.90 33.44 001920
33.46 38.35 0.191 0.90 33.46 001921
33.48 38.75 0.191 0.90 33.48 001922
33.50 39.43 0.191 0.90 33.50 001923
33.52 40.4 0.191 0.90 33.52 001924
33.54 41.1 0.191 0.90 33.54 001925
33.56 41.7 0.191 0.90 33.56 001926
33.58 42.06 0.19 0.90 33.58 001927
33.60 42.47 0.193 0.90 33.60 001928
33.62 42.89 0.196 0.90 33.62 001929
33.64 43.74 0.202 0.90 33.64 001930
33.66 44.54 0.205 0.90 33.66 001932
33.68 45.71 0.212 0.90 33.68 001933
33.70 46.92 0.218 0.90 33.70 001934
33.72 48.34 0.225 0.90 33.72 001935
33.74 49.48 0.232 0.90 33.74 001936
33.76 50.85 0.239 0.90 33.76 001937
33.78 52.18 0.242 0.90 33.78 001938
33.80 53.12 0.245 0.90 33.80 001939
33.82 54.02 0.248 0.90 33.82 001940
33.84 54.7 0.251 0.90 33.84 001942
33.86 54.6 0.249 0.90 33.86 001943
33.88 54.28 0.256 0.90 33.88 001944
33.90 53.65 0.259 0.90 33.90 001945
33.92 53.5 0.265 0.90 33.92 001946
33.94 53.28 0.274 0.90 33.94 001947
33.96 53.47 0.289 0.90 33.96 001948
33.98 53.94 0.294 0.90 33.98 001949
34.00 54.9 0.289 0.90 34.00 001950
34.02 53.89 0.285 0.90 34.02 001951
34.04 53.61 0.332 0.90 34.04 001953
34.06 54.1 0.321 0.90 34.06 001954
34.08 53.93 0.322 0.90 34.08 001955
34.10 54.02 0.322 0.90 34.10 001956
34.12 54.22 0.308 0.90 34.12 001957
34.14 54.55 0.31 0.90 34.14 001958
34.16 54.99 0.323 0.90 34.16 001959
34.18 54.06 0.279 0.90 34.18 001972
34.20 53.12 0.235 1.10 34.20 001974
34.22 52.05 0.238 0.90 34.22 001975
34.24 50.98 0.24 0.90 34.24 001976
34.26 49.47 0.237 1.10 34.26 001977
34.28 47.87 0.245 0.90 34.28 001978
34.30 46.17 0.254 1.10 34.30 001979
34.32 45.04 0.255 1.10 34.32 001980
34.34 43.92 0.257 1.10 34.34 001981
34.36 43.25 0.256 1.10 34.36 001982
34.38 42.95 0.253 1.10 34.38 001983
34.40 42.83 0.25 1.10 34.40 001984
34.42 42.9 0.25 1.10 34.42 001986
34.44 43.12 0.243 1.10 34.44 001987
34.46 43.41 0.234 1.30 34.46 001988
34.48 43.36 0.228 1.30 34.48 001989
34.50 43.33 0.225 1.30 34.50 001990
34.52 43.44 0.225 1.30 34.52 001991
34.54 43.35 0.225 1.30 34.54 001992
34.56 43.45 0.223 1.30 34.56 001993
34.58 43.42 0.23 1.30 34.58 001994
34.60 43.48 0.235 1.30 34.60 001995
34.62 43.52 0.239 1.10 34.62 001996
34.64 43.61 0.24 1.30 34.64 001998
34.66 43.89 0.241 1.30 34.66 001999
34.68 44.24 0.244 1.30 34.68 002000
34.70 44.31 0.244 1.30 34.70 002001
34.72 44.58 0.244 1.30 34.72 002002
34.74 45.03 0.249 1.30 34.74 002003
34.76 45.15 0.253 1.30 34.76 002004
34.78 45.14 0.255 1.30 34.78 002005
34.80 44.98 0.258 1.30 34.80 002006
34.82 44.88 0.256 1.30 34.82 002007
34.84 44.99 0.26 1.30 34.84 002009
34.86 45.79 0.263 1.50 34.86 002010
34.88 46.34 0.267 1.50 34.88 002011
34.90 47.41 0.27 1.50 34.90 002012
34.92 48.16 0.27 1.30 34.92 002013
34.94 49.05 0.276 1.30 34.94 002014
34.96 49.66 0.28 1.30 34.96 002015
34.98 50.67 0.282 1.30 34.98 002016
35.00 51.71 0.285 1.50 35.00 002017
35.02 52.46 0.291 1.30 35.02 002019
35.04 53.46 0.301 1.30 35.04 002020
35.06 54.12 0.309 1.30 35.06 002021
35.08 54.51 0.316 1.10 35.08 002022
35.10 54.52 0.32 1.30 35.10 002023
35.12 54.28 0.2995 1.30 35.12 002036
35.14 54.04 0.279 1.10 35.14 002037
35.16 54.06 0.292 1.30 35.16 002038
35.18 53.76 0.299 1.30 35.18 002040
35.20 53.07 0.311 1.50 35.20 002041
35.22 52.57 0.321 1.30 35.22 002042
35.24 53.05 0.329 1.30 35.24 002043
35.26 54.22 0.329 1.30 35.26 002044
35.28 54.77 0.324 1.30 35.28 002045
35.30 55.15 0.32 1.30 35.30 002046
35.32 56.58 0.319 1.30 35.32 002048
35.34 57.88 0.314 1.30 35.34 002049
35.36 58.36 0.317 1.30 35.36 002050
35.38 57.88 0.307 1.30 35.38 002051
35.40 58.13 0.299 1.50 35.40 002052
35.42 58.08 0.3015 1.30 35.42 002053
35.44 58.02 0.304 1.30 35.44 002055
35.46 57.42 0.305 1.30 35.46 002056
35.48 56.46 0.30 1.50 35.48 002057
35.50 55.05 0.3045 1.50 35.50 002058
35.52 54 0.309 1.50 35.52 002059
35.54 53.26 0.313 1.30 35.54 002060
35.56 52.88 0.3045 1.50 35.56 002061
35.58 52.51 0.3003 1.50 35.58 002063
35.60 52.04 0.296 1.30 35.60 002064
35.62 51.11 0.296 1.30 35.62 002065
35.64 50.41 0.297 1.50 35.64 002066
35.66 49.91 0.299 1.50 35.66 002067
35.68 49.61 0.304 1.50 35.68 002068
35.70 49.38 0.309 1.50 35.70 002069
35.72 49.15 0.305 1.30 35.72 002070
35.74 48.93 0.306 1.50 35.74 002072
35.76 48.85 0.309 1.50 35.76 002073
35.78 48.79 0.31 1.30 35.78 002074
35.80 48.85 0.31 1.30 35.80 002075
35.82 48.88 0.309 1.30 35.82 002076
35.84 48.75 0.3075 1.30 35.84 002077
35.86 48.77 0.3073 1.30 35.86 002078
35.88 48.83 0.307 1.50 35.88 002079
35.90 48.9 0.3065 1.30 35.90 002081
35.92 48.81 0.306 1.30 35.92 002082
35.94 48.79 0.3055 1.30 35.94 002083
35.96 48.9 0.3058 1.50 35.96 002084
35.98 49.09 0.306 1.30 35.98 002085
36.00 49.28 0.3065 1.50 36.00 002086
36.02 49.33 0.3073 1.50 36.02 002087
36.04 49.49 0.308 1.50 36.04 002089
36.06 49.73 0.2875 1.30 36.06 002109
36.08 50.15 0.2803 1.30 36.08 002110
36.10 50.63 0.2796 1.30 36.10 002112
36.12 51.1 0.279 1.30 36.12 002113
36.14 51.52 0.287 1.50 36.14 002114
36.16 52.18 0.301 1.30 36.16 002115
36.18 52.91 0.308 1.30 36.18 002116
36.20 53.88 0.309 1.50 36.20 002117
36.22 55.16 0.315 1.50 36.22 002119
36.24 56.45 0.321 1.30 36.24 002120
36.26 57.19 0.323 1.30 36.26 002121
36.28 58 0.329 1.30 36.28 002122
36.30 58.43 0.331 1.30 36.30 002124
36.32 59.21 0.336 1.50 36.32 002125
36.34 59.83 0.341 1.30 36.34 002126
36.36 60.36 0.351 1.30 36.36 002127
36.38 60.44 0.36 1.50 36.38 002128
36.40 61.05 0.373 1.30 36.40 002130
36.42 61.36 0.378 1.30 36.42 002131
36.44 61.64 0.38 1.30 36.44 002132
36.46 62 0.38 1.50 36.46 002133
36.48 62.2 0.385 1.30 36.48 002135
36.50 62.04 0.386 1.30 36.50 002136
36.52 61.86 0.386 1.30 36.52 002137
36.54 61.56 0.389 1.30 36.54 002139
36.56 61.31 0.391 1.30 36.56 002140
36.58 60.95 0.394 1.30 36.58 002141
36.60 60.62 0.391 1.30 36.60 002142
36.62 60.48 0.391 1.30 36.62 002144
36.64 60.23 0.388 1.30 36.64 002145
36.66 59.71 0.386 1.30 36.66 002146
36.68 59.47 0.382 1.30 36.68 002147
36.70 58.94 0.382 1.30 36.70 002149
36.72 58.93 0.38 1.30 36.72 002150
36.74 58.75 0.382 1.30 36.74 002151
36.76 58.73 0.384 1.30 36.76 002152
36.78 58.25 0.382 1.10 36.78 002154
36.80 57.64 0.376 1.50 36.80 002155
36.82 57.11 0.375 1.30 36.82 002156
36.84 57.1 0.382 1.30 36.84 002157
36.86 56.81 0.381 1.30 36.86 002159
36.88 56.77 0.383 1.10 36.88 002160
36.90 56.79 0.385 1.30 36.90 002161
36.92 56.63 0.371 1.30 36.92 002162
36.94 56.44 0.366 1.30 36.94 002164
36.96 56.57 0.36 1.30 36.96 002165
36.98 56.2 0.3315 1.30 36.98 002175
37.00 55.83 0.303 1.30 37.00 002176
37.02 55.41 0.318 1.30 37.02 002177
37.04 55.3 0.327 1.30 37.04 002178
37.06 55.16 0.334 1.30 37.06 002180
37.08 54.97 0.339 1.30 37.08 002181
37.10 54.64 0.343 1.30 37.10 002182
37.12 54.23 0.343 1.30 37.12 002183
37.14 54.42 0.337 1.30 37.14 002184
37.16 54.57 0.339 1.30 37.16 002186
37.18 54.71 0.34 1.30 37.18 002187
37.20 55.26 0.341 1.30 37.20 002188
37.22 55.94 0.338 1.30 37.22 002189
37.24 56.48 0.335 1.30 37.24 002191
37.26 56.92 0.328 1.30 37.26 002192
37.28 56.93 0.323 1.30 37.28 002193
37.30 56.37 0.2965 1.50 37.30 002210
37.32 55.8 0.27 1.50 37.32 002211
37.34 55.35 0.276 1.50 37.34 002213
37.36 54.84 0.282 1.50 37.36 002214
37.38 53.95 0.288 1.50 37.38 002215
37.40 53.56 0.298 1.50 37.40 002216
37.42 53.5 0.309 1.30 37.42 002217
37.44 53.49 0.324 1.50 37.44 002218
37.46 53.33 0.319 1.30 37.46 002219
37.48 53.28 0.326 1.50 37.48 002220
37.50 52.81 0.32 1.30 37.50 002222
37.52 52.8 0.319 1.50 37.52 002223
37.54 52.79 0.321 1.30 37.54 002224
37.56 52.81 0.321 1.50 37.56 002225
37.58 52.73 0.319 1.50 37.58 002226
37.60 52.58 0.319 1.50 37.60 002227
37.62 52.64 0.319 1.30 37.62 002228
37.64 52.82 0.321 1.50 37.64 002229
37.66 52.88 0.321 1.50 37.66 002231
37.68 53.13 0.324 1.50 37.68 002232
37.70 53.28 0.325 1.50 37.70 002233
37.72 53.67 0.325 1.50 37.72 002234
37.74 53.92 0.321 1.50 37.74 002235
37.76 54.22 0.32 1.50 37.76 002236
37.78 54.49 0.316 1.50 37.78 002237
37.80 54.47 0.315 1.50 37.80 002238
37.82 54.31 0.309 1.50 37.82 002239
37.84 54.54 0.312 1.50 37.84 002241
37.86 55.01 0.314 1.50 37.86 002242
37.88 55.4 0.315 1.50 37.88 002243
37.90 55.54 0.312 1.50 37.90 002244
37.92 55.47 0.312 1.50 37.92 002245
37.94 55.47 0.315 1.50 37.94 002246
37.96 55.63 0.317 1.50 37.96 002247
37.98 55.48 0.317 1.50 37.98 002248
38.00 55.64 0.319 1.50 38.00 002249
38.02 55.76 0.299 1.50 38.02 002272
38.04 55.88 0.279 1.50 38.04 002273
38.06 56.31 0.283 1.50 38.06 002274
38.08 56.5 0.287 1.50 38.08 002275
38.10 56.69 0.295 1.50 38.10 002276
38.12 57.34 0.297 1.50 38.12 002277
38.14 57.77 0.302 1.50 38.14 002278
38.16 57.96 0.306 1.50 38.16 002279
38.18 58.48 0.304 1.50 38.18 002280
38.20 58.9 0.306 1.70 38.20 002281
38.22 59.18 0.305 1.50 38.22 002282
38.24 59.88 0.306 1.50 38.24 002283
38.26 59.9 0.303 1.50 38.26 002285
38.28 60.24 0.301 1.50 38.28 002286
38.30 60.67 0.299 1.50 38.30 002287
38.32 61.29 0.2955 1.50 38.32 002288
38.34 61.22 0.292 1.50 38.34 002289
38.36 60.6 0.287 1.50 38.36 002290
38.38 59.66 0.282 1.50 38.38 002291
38.40 57.88 0.276 1.50 38.40 002292
38.42 55.96 0.258 1.70 38.42 002301
38.44 54.33 0.2545 1.50 38.44 002302
38.46 52.71 0.2548 1.70 38.46 002303
38.48 50.99 0.2569 1.70 38.48 002304
38.50 49.38 0.2602 1.70 38.50 002305
38.52 48.06 0.2641 1.70 38.52 002306
38.54 47.3 0.268 1.70 38.54 002307
38.56 47.33 0.263 1.70 38.56 002308
38.58 48 0.259 1.70 38.58 002309
38.60 49.02 0.2601 1.70 38.60 002310
38.62 50.04 0.2613 1.70 38.62 002311
38.64 51.42 0.2721 1.70 38.64 002312
38.66 52.8 0.2841 1.70 38.66 002313
38.68 53.66 0.296 1.70 38.68 002314
38.70 54.43 0.2956 1.50 38.70 002315
38.72 54.74 0.2964 1.50 38.72 002316
38.74 55.05 0.299 1.70 38.74 002317
38.76 54.86 0.3016 1.70 38.76 002318
38.78 54.86 0.306 1.70 38.78 002319
38.80 55.26 0.318 1.70 38.80 002320
38.82 56.28 0.33 1.70 38.82 002321
38.84 57.31 0.31 1.70 38.84 002322
38.86 57.56 0.2975 1.70 38.86 002323
38.88 57.81 0.2888 1.70 38.88 002324
38.90 57.37 0.28 1.70 38.90 002337
38.92 56.93 0.275 1.70 38.92 002339
38.94 56.03 0.276 1.70 38.94 002340
38.96 54.46 0.271 1.70 38.96 002341
38.98 53.64 0.272 1.70 38.98 002342
39.00 52.98 0.277 1.70 39.00 002343
39.02 52.98 0.281 1.70 39.02 002344
39.04 54.68 0.277 1.70 39.04 002345
39.06 57.2 0.281 1.50 39.06 002346
39.08 59.16 0.271 1.70 39.08 002347
39.10 59.58 0.259 1.70 39.10 002348
39.12 59.89 0.249 1.70 39.12 002349
39.14 59.6 0.259 1.70 39.14 002350
39.16 60.55 0.25 1.70 39.16 002351
39.18 61.27 0.2465 1.70 39.18 002375
39.20 61.98 0.243 1.70 39.20 002376
39.22 63 0.248 1.70 39.22 002377
39.24 62.41 0.262 1.70 39.24 002378
39.26 62.22 0.266 1.70 39.26 002380
39.28 62.44 0.267 1.70 39.28 002382
39.30 62.32 0.263 1.70 39.30 002383
39.32 61.6 0.265 1.70 39.32 002384
39.34 61.29 0.266 1.70 39.34 002385
39.36 60.32 0.267 1.70 39.36 002386
39.38 59.57 0.268 1.70 39.38 002387
39.40 58.92 0.268 1.70 39.40 002388
39.42 58.7 0.273 1.70 39.42 002389
39.44 58.47 0.2815 1.70 39.44 002390
39.46 58.2 0.29 1.70 39.46 002391
39.48 57.92 0.293 1.70 39.48 002392
39.50 57.68 0.296 1.70 39.50 002393
39.52 57.44 0.298 1.70 39.52 002394
39.54 57.15 0.299 1.90 39.54 002395
39.56 56.65 0.309 1.70 39.56 002396
39.58 55.79 0.319 1.70 39.58 002397
39.60 55.3 0.317 1.70 39.60 002398
39.62 54.8 0.325 1.70 39.62 002399
39.64 54.4 0.333 1.70 39.64 002400
39.66 54 0.327 1.70 39.66 002401
39.68 53.66 0.323 1.70 39.68 002402
39.70 53.97 0.323 1.70 39.70 002403
39.72 54.5 0.322 1.70 39.72 002404
39.74 54.71 0.2885 1.90 39.74 002415
39.76 54.91 0.255 1.90 39.76 002417
39.78 55.61 0.262 1.70 39.78 002418
39.80 56.14 0.269 1.90 39.80 002419
39.82 56.41 0.264 1.70 39.82 002420
39.84 56.8 0.265 1.90 39.84 002421
39.86 56.11 0.276 1.90 39.86 002422
39.88 55.52 0.281 1.90 39.88 002424
39.90 55.24 0.295 1.90 39.90 002425
39.92 54.94 0.295 1.90 39.92 002426
39.94 54.66 0.301 1.90 39.94 002427
39.96 54.68 0.31 1.90 39.96 002428
39.98 54.57 0.309 1.90 39.98 002429
40.00 54.77 0.305 1.90 40.00 002430
40.02 54.98 0.301 1.90 40.02 002431
40.04 55.18 0.29 1.90 40.04 002432
40.06 54.84 0.279 1.90 40.06 002433
40.08 54.78 0.283 1.90 40.08 002434
40.10 54.45 0.278 1.90 40.10 002435
40.12 54.08 0.264 1.90 40.12 002436
40.14 53.52 0.265 1.90 40.14 002437
40.16 53.13 0.266 1.90 40.16 002438
40.18 52.02 0.268 1.90 40.18 002439
40.20 51.08 0.269 1.90 40.20 002440
40.22 49.96 0.267 1.90 40.22 002441
40.24 48.91 0.271 1.90 40.24 002442
40.26 48.3 0.265 2.00 40.26 002443
40.28 47.6 0.261 1.90 40.28 002444
40.30 46.7 0.266 1.90 40.30 002445
40.32 46.41 0.255 2.00 40.32 002446
40.34 46.11 0.245 2.00 40.34 002447
40.36 45.82 0.221 2.00 40.36 002470
40.38 46.03 0.2055 1.90 40.38 002471
40.40 46.45 0.1968 1.90 40.40 002472
40.42 46.9 0.1944 2.00 40.42 002473
40.44 47.36 0.1957 1.90 40.44 002474
40.46 47.69 0.197 1.90 40.46 002475
40.48 47.9 0.1945 2.00 40.48 002476
40.50 47.62 0.1938 2.00 40.50 002477
40.52 46.65 0.1959 2.00 40.52 002478
40.54 45.77 0.1999 2.00 40.54 002479
40.56 45.04 0.206 2.00 40.56 002480
40.58 44.49 0.212 2.00 40.58 002481
40.60 43.98 0.2155 1.90 40.60 002482
40.62 43.47 0.219 1.90 40.62 002483
40.64 43 0.218 2.00 40.64 002484
40.66 42.77 0.217 2.00 40.66 002485
40.68 42.84 0.2185 2.00 40.68 002487
40.70 42.94 0.2208 2.00 40.70 002488
40.72 43.05 0.223 2.00 40.72 002489
40.74 42.9 0.2215 2.00 40.74 002490
40.76 42.83 0.2228 2.00 40.76 002491
40.78 42.75 0.2254 2.00 40.78 002492
40.80 42.09 0.2292 2.00 40.80 002493
40.82 41.17 0.2411 2.00 40.82 002494
40.84 40.19 0.253 2.00 40.84 002495
40.86 40.88 0.25 2.00 40.86 002496
40.88 41.84 0.261 2.00 40.88 002497
40.90 42.95 0.272 2.00 40.90 002498
40.92 44.07 0.28 2.00 40.92 002499
40.94 45.18 0.288 2.00 40.94 002500
40.96 46.3 0.296 2.00 40.96 002501
40.98 46.78 0.298 2.00 40.98 002502
41.00 47.18 0.288 2.00 41.00 002503
41.02 47.76 0.283 2.00 41.02 002504
41.04 48.55 0.278 2.00 41.04 002505
41.06 49.52 0.269 2.00 41.06 002506
41.08 50.5 0.265 2.00 41.08 002507
41.10 50.91 0.261 2.00 41.10 002508
41.12 50.97 0.246 2.00 41.12 002509
41.14 51.05 0.2385 2.00 41.14 002510
41.16 51.14 0.2373 2.20 41.16 002511
41.18 50.97 0.236 2.00 41.18 002512
41.20 50.79 0.2385 2.00 41.20 002513
41.22 50.2 0.241 2.00 41.22 002514
41.24 49.31 0.237 2.00 41.24 002515
41.26 47.79 0.232 2.20 41.26 002516
41.28 46.31 0.233 2.20 41.28 002517
41.30 44.67 0.23 2.20 41.30 002518
41.32 41.95 0.224 2.20 41.32 002534
41.34 39.22 0.218 2.20 41.34 002535
41.36 37.44 0.228 2.20 41.36 002536
41.38 36.23 0.243 2.20 41.38 002537
41.40 34.84 0.243 2.20 41.40 002538
41.42 33.62 0.24 2.20 41.42 002539
41.44 32.7 0.237 2.20 41.44 002540
41.46 31.52 0.23 2.20 41.46 002541
41.48 30.73 0.23 2.20 41.48 002542
41.50 29.99 0.226 2.20 41.50 002543
41.52 29.25 0.22 2.20 41.52 002544
41.54 28.69 0.206 2.20 41.54 002545
41.56 28.15 0.196 2.20 41.56 002546
41.58 27.58 0.19 2.20 41.58 002547
41.60 27.16 0.186 2.20 41.60 002548
41.62 26.64 0.181 2.20 41.62 002549
41.64 26.19 0.178 2.20 41.64 002550
41.66 25.72 0.175 2.40 41.66 002551
41.68 25.4 0.172 2.20 41.68 002552
41.70 25.17 0.171 2.40 41.70 002553
41.72 25.04 0.169 2.40 41.72 002554
41.74 24.94 0.169 2.40 41.74 002555
41.76 25.02 0.166 2.40 41.76 002556
41.78 25.11 0.164 2.20 41.78 002557
41.80 25.18 0.162 2.20 41.80 002558
41.82 25.28 0.159 2.20 41.82 002559
41.84 25.35 0.158 2.20 41.84 002560
41.86 25.53 0.155 2.40 41.86 002561
41.88 25.72 0.154 2.40 41.88 002562
41.90 25.95 0.153 2.40 41.90 002563
41.92 26.1 0.151 2.40 41.92 002563
41.94 26.29 0.149 2.40 41.94 002564
41.96 26.37 0.149 2.40 41.96 002565
41.98 26.32 0.146 2.40 41.98 002566
42.00 26.15 0.144 2.40 42.00 002567
42.02 25.82 0.144 2.40 42.02 002568
42.04 25.53 0.145 2.40 42.04 002569
42.06 24.8 0.147 2.40 42.06 002570
42.08 23.67 0.148 2.40 42.08 002571
42.10 22.52 0.149 2.40 42.10 002572
42.12 21.53 0.1495 2.40 42.12 002573
42.14 20.74 0.1503 2.40 42.14 002574
42.16 20.03 0.1521 2.40 42.16 002575
42.18 19.32 0.154 2.40 42.18 002576
42.20 18.5 0.153 2.40 42.20 002577
42.22 17.78 0.149 2.40 42.22 002578
42.24 17.3 0.1449 2.40 42.24 002588
42.26 17.05 0.1444 2.40 42.26 002589
42.28 17.08 0.1457 2.40 42.28 002590
42.30 17.39 0.1473 2.40 42.30 002591
42.32 17.9 0.149 2.40 42.32 002592
42.34 18.58 0.1509 2.40 42.34 002593
42.36 19.44 0.1534 2.40 42.36 002594
42.38 20.3 0.1559 2.40 42.38 002595
42.40 21.45 0.159 2.40 42.40 002596
42.42 22.64 0.153 2.40 42.42 002597
42.44 23.91 0.147 2.40 42.44 002598
42.46 25.43 0.139 2.40 42.46 002599
42.48 27.27 0.1325 2.40 42.48 002600
42.50 29.5 0.128 2.40 42.50 002601
42.52 31.72 0.1235 2.40 42.52 002602
42.54 34.33 0.1223 2.40 42.54 002603
42.56 36.82 0.1241 2.40 42.56 002604
42.58 39.23 0.1276 2.40 42.58 002605
42.60 40.86 0.1333 2.40 42.60 002606
42.62 42.34 0.1411 2.40 42.62 002607
42.64 43.49 0.149 2.40 42.64 002609
42.66 44.58 0.158 2.40 42.66 002610
42.68 45.43 0.172 2.50 42.68 002611
42.70 46.31 0.187 2.50 42.70 002612
42.72 47.13 0.197 2.50 42.72 002613
42.74 48.23 0.208 2.50 42.74 002614
42.76 48.46 0.215 2.50 42.76 002615
42.78 48.24 0.222 2.50 42.78 002616
42.80 47.21 0.236 2.50 42.80 002617
42.82 45.67 0.242 2.50 42.82 002618
42.84 44.36 0.252 2.50 42.84 002619
42.86 43.8 0.259 2.50 42.86 002620
42.88 43.72 0.263 2.50 42.88 002621
42.90 43.88 0.269 2.50 42.90 002622
42.92 44.31 0.266 2.50 42.92 002623
42.94 44.95 0.257 2.50 42.94 002624
42.96 45.83 0.252 2.50 42.96 002625
42.98 46.9 0.237 2.50 42.98 002626
43.00 47.41 0.227 2.50 43.00 002627
43.02 48.27 0.214 2.50 43.02 002628
43.04 49.33 0.21 2.50 43.04 002629
43.06 50.34 0.206 2.50 43.06 002630
43.08 51.36 0.199 2.70 43.08 002631
43.10 52.22 0.194 2.50 43.10 002632
43.12 54.2 0.19 2.50 43.12 002633
43.14 55.59 0.1765 2.70 43.14 002648
43.16 56.97 0.163 2.70 43.16 002649
43.17 58.76 0.183 2.50 43.17 002651
43.19 60.21 0.195 2.50 43.19 002652
43.21 61.95 0.202 2.50 43.21 002653
43.23 63.03 0.215 2.70 43.23 002654
43.25 64.52 0.226 2.70 43.25 002656
43.27 65.77 0.23 2.70 43.27 002658
43.29 66.84 0.248 2.70 43.29 002659
43.31 68.43 0.245 2.70 43.31 002661
43.33 69.3 0.247 2.70 43.33 002662
43.35 70.23 0.266 2.70 43.35 002664
43.37 71.21 0.271 2.70 43.37 002666
43.39 72.49 0.284 2.70 43.39 002668
43.41 73.86 0.293 2.70 43.41 002670
43.43 75.38 0.30 2.70 43.43 002672
43.45 76.33 0.319 2.70 43.45 002675
43.47 76.9 0.306 2.70 43.47 002677
43.49 76.78 0.314 2.70 43.49 002679
43.51 76.58 0.325 2.70 43.51 002681
43.53 74.53 0.34 2.70 43.53 002683
43.55 70.84 0.3295 2.70 43.55 002703
43.57 67.14 0.319 2.70 43.57 002707
43.59 67.64 0.328 2.70 43.59 002709
43.61 67.8 0.337 2.70 43.61 002711
43.63 67.94 0.324 2.70 43.63 002714
43.65 65.99 0.342 2.90 43.65 002716
43.67 65.45 0.327 2.90 43.67 002718
43.69 65.09 0.338 3.00 43.69 002720
43.71 64.42 0.345 3.00 43.71 002722
43.73 64.2 0.333 3.00 43.73 002723
43.75 62.75 0.339 3.00 43.75 002725
43.77 62.69 0.336 3.00 43.77 002727
43.79 62.31 0.336 3.00 43.79 002729
43.81 62.12 0.338 3.00 43.81 002731
43.83 62.12 0.36 3.00 43.83 002732
43.85 61.72 0.358 3.00 43.85 002734
43.87 62.25 0.344 3.00 43.87 002735
43.89 61.93 0.335 3.00 43.89 002737
43.91 61.58 0.342 3.00 43.91 002739
43.93 60.98 0.331 3.00 43.93 002740
43.95 60.97 0.328 3.00 43.95 002742
43.97 60.45 0.307 3.00 43.97 002777
43.99 59.93 0.286 3.00 43.99 002780
44.01 60.18 0.287 3.00 44.01 002782
44.03 60.6 0.304 2.80 44.03 002784
44.05 61.38 0.311 3.00 44.05 002786
44.07 61.36 0.313 3.00 44.07 002788
44.09 62.02 0.344 3.00 44.09 002791
44.11 62.25 0.318 3.00 44.11 002793
44.13 62.64 0.325 3.00 44.13 002795
44.15 62.87 0.326 3.00 44.15 002798
44.17 63.07 0.336 3.00 44.17 002800
44.19 62.87 0.343 3.00 44.19 002802
44.21 62.91 0.338 3.00 44.21 002805
44.23 62.55 0.333 3.00 44.23 002807
44.25 61.97 0.335 3.00 44.25 002809
44.27 62.07 0.335 3.20 44.27 002811
44.29 62.01 0.324 3.20 44.29 002812
44.31 61.77 0.331 3.20 44.31 002814
44.33 61.75 0.329 3.20 44.33 002816
44.35 62.11 0.32 3.20 44.35 002818
44.37 62.54 0.315 3.20 44.37 002819
44.39 62.91 0.312 3.20 44.39 002821
44.41 63.64 0.322 3.20 44.41 002823
44.43 64.33 0.321 3.20 44.43 002825
44.45 65.6 0.329 3.20 44.45 002827
44.47 66.34 0.34 3.20 44.47 002828
44.49 67.07 0.334 3.20 44.49 002830
44.51 65.88 0.3015 3.20 44.51 002848
44.53 64.69 0.269 3.20 44.53 002851
44.55 64.14 0.27 3.30 44.55 002853
44.57 63.7 0.279 3.20 44.57 002855
44.59 63 0.288 3.20 44.59 002856
44.61 62.65 0.293 3.30 44.61 002858
44.63 62.72 0.296 3.20 44.63 002859
44.65 62.78 0.291 3.20 44.65 002861
44.67 62.29 0.288 3.40 44.67 002862
44.69 62.2 0.284 3.30 44.69 002863
44.71 62.11 0.288 3.40 44.71 002864
44.73 62.04 0.298 3.40 44.73 002865
44.75 62.61 0.302 3.40 44.75 002867
44.77 63.05 0.312 3.40 44.77 002868
44.79 63.41 0.315 3.40 44.79 002869
44.81 63.24 0.311 3.40 44.81 002870
44.83 62.92 0.318 3.40 44.83 002872
44.85 63.14 0.318 3.40 44.85 002873
44.87 62.95 0.322 3.40 44.87 002874
44.89 63.23 0.331 3.40 44.89 002875
44.91 64.28 0.332 3.40 44.91 002877
44.93 64.48 0.2975 3.40 44.93 002888
44.95 64.68 0.263 3.40 44.95 002890
44.97 63.92 0.264 3.30 44.97 002893
44.99 63.08 0.275 3.30 44.99 002895
45.01 62.43 0.275 3.30 45.01 002896
45.03 61.94 0.295 3.40 45.03 002898
45.05 61.06 0.30 3.40 45.05 002899
45.07 59.96 0.308 3.40 45.07 002901
45.09 59.8 0.307 3.30 45.09 002903
45.11 59.96 0.302 3.40 45.11 002904
45.13 59.93 0.318 3.50 45.13 002906
45.15 59.68 0.325 3.50 45.15 002907
45.17 59.72 0.322 3.40 45.17 002908
45.19 59.58 0.317 3.60 45.19 002909
45.21 59.07 0.317 3.60 45.21 002910
45.23 58.66 0.313 3.60 45.23 002911
45.25 58.58 0.305 3.60 45.25 002913
45.27 58.34 0.304 3.60 45.27 002914
45.29 58.15 0.3255 3.60 45.29 002915
45.31 59.25 0.3803 3.60 45.31 002957
45.33 60.35 0.435 3.70 45.33 002959
45.35 61.52 0.384 3.60 45.35 002961
45.37 57.96 0.411 3.70 45.37 002964
45.39 58.78 0.509 3.60 45.39 002966
45.41 56.84 0.4765 3.70 45.41 002968
45.43 55.99 0.4448 3.60 45.43 002979
45.45 55.13 0.413 3.70 45.45 002982
45.47 54.76 0.397 3.60 45.47 002984
45.49 53.67 0.361 3.80 45.49 002986
45.51 52.24 0.353 3.80 45.51 002987
45.53 51.15 0.359 3.80 45.53 002989
45.55 50.4 0.332 3.80 45.55 002990
45.57 50.43 0.329 3.80 45.57 002991
45.59 49.91 0.272 3.80 45.59 002992
45.61 49.41 0.264 3.80 45.61 002993
45.63 48.89 0.289 4.00 45.63 002994
45.65 49.07 0.284 4.00 45.65 002995
45.67 49.03 0.287 3.90 45.67 002996
45.69 48.94 0.282 3.90 45.69 002998
45.71 48.91 0.272 3.90 45.71 002999
45.73 48.72 0.273 3.90 45.73 003000
45.75 48.69 0.273 3.90 45.75 003001
45.77 48.29 0.278 4.10 45.77 003002
45.79 48.18 0.268 4.10 45.79 003003
45.81 48.28 0.268 4.10 45.81 003004
45.83 48.24 0.269 4.10 45.83 003005
45.85 48.41 0.275 4.10 45.85 003006
45.87 48.28 0.27 4.10 45.87 003008
45.89 48.34 0.261 4.10 45.89 003009
45.91 48.26 0.256 4.10 45.91 003010
45.93 48.21 0.248 4.10 45.93 003011
45.95 48.52 0.251 4.10 45.95 003012
45.97 48.36 0.254 4.10 45.97 003013
45.99 48.02 0.263 4.10 45.99 003014
46.01 47.6 0.267 4.10 46.01 003015
46.03 47.28 0.268 4.10 46.03 003016
46.05 46.96 0.276 4.10 46.05 003018
46.07 46.9 0.278 4.10 46.07 003019
46.09 46.79 0.281 4.10 46.09 003020
46.11 46.63 0.289 4.10 46.11 003021
46.13 46.53 0.289 4.30 46.13 003022
46.15 46.31 0.288 4.30 46.15 003023
46.17 46.2 0.286 4.30 46.17 003024
46.19 46.16 0.282 4.30 46.19 003025
46.21 46.16 0.285 4.30 46.21 003026
46.23 45.77 0.29 4.20 46.23 003027
46.25 45.94 0.291 4.10 46.25 003029
46.27 45.78 0.287 4.20 46.27 003030
46.29 45.51 0.272 4.20 46.29 003043
46.31 45.23 0.257 4.20 46.31 003044
46.33 45.71 0.265 4.00 46.33 003045
46.35 46.08 0.271 4.00 46.35 003046
46.37 46.32 0.28 4.20 46.37 003047
46.39 46.77 0.282 4.20 46.39 003048
46.41 47.09 0.286 4.20 46.41 003049
46.43 47.63 0.287 4.00 46.43 003051
46.45 47.94 0.291 4.00 46.45 003052
46.47 47.6 0.294 4.00 46.47 003053
46.49 46.46 0.296 4.00 46.49 003054
46.51 44.92 0.303 4.20 46.51 003055
46.53 43.27 0.301 4.20 46.53 003056
46.55 42.47 0.302 4.40 46.55 003057
46.57 41.86 0.303 4.20 46.57 003058
46.59 41.41 0.304 4.20 46.59 003059
46.61 40.93 0.299 4.40 46.61 003060
46.63 40.29 0.295 4.40 46.63 003062
46.65 40.09 0.291 4.40 46.65 003063
46.67 39.7 0.283 4.40 46.67 003064
46.69 39.49 0.274 4.40 46.69 003065
46.71 39.06 0.264 4.60 46.71 003066
46.73 38.86 0.259 4.40 46.73 003067
46.75 38.66 0.255 4.40 46.75 003068
46.77 38.5 0.2555 4.40 46.77 003069
46.79 38.43 0.2553 4.40 46.79 003077
46.81 38.37 0.255 4.60 46.81 003079
46.83 38.44 0.251 4.40 46.83 003080
46.85 38.34 0.251 4.40 46.85 003081
46.87 38.5 0.249 4.40 46.87 003082
46.89 38.53 0.248 4.60 46.89 003083
46.91 38.52 0.245 4.60 46.91 003084
46.93 38.56 0.242 4.60 46.93 003085
46.95 38.61 0.239 4.60 46.95 003086
46.97 38.57 0.236 4.60 46.97 003087
46.99 38.55 0.236 4.60 46.99 003088
47.01 38.68 0.235 4.60 47.01 003090
47.03 38.95 0.235 4.60 47.03 003091
47.05 39.19 0.235 4.40 47.05 003092
47.07 39.4 0.233 4.60 47.07 003093
47.09 39.72 0.236 4.40 47.09 003094
47.11 40.15 0.236 4.40 47.11 003095
47.13 40.7 0.243 4.60 47.13 003096
47.15 41.22 0.24 4.60 47.15 003097
47.17 41.99 0.241 4.60 47.17 003098
47.19 42.69 0.243 4.60 47.19 003099
47.21 43.33 0.242 4.60 47.21 003100
47.23 43.32 0.23 4.60 47.23 003113
47.25 43.31 0.218 4.60 47.25 003114
47.27 44.55 0.219 4.60 47.27 003115
47.29 44.86 0.225 4.60 47.29 003117
47.31 45.35 0.232 4.60 47.31 003118
47.33 45.61 0.246 4.40 47.33 003119
47.35 45.97 0.258 4.40 47.35 003120
47.37 46.16 0.26 4.40 47.37 003121
47.39 46.11 0.262 4.60 47.39 003122
47.41 45.94 0.266 4.40 47.41 003123
47.43 46.03 0.268 4.60 47.43 003124
47.45 45.84 0.273 4.60 47.45 003125
47.47 45.76 0.28 4.60 47.47 003126
47.49 45.96 0.283 4.60 47.49 003128
47.51 46.11 0.287 4.60 47.51 003129
47.53 46.46 0.29 4.40 47.53 003130
47.55 46.9 0.284 4.60 47.55 003131
47.57 47.13 0.285 4.80 47.57 003132
47.59 47.33 0.289 4.60 47.59 003133
47.61 47.45 0.292 4.80 47.61 003134
47.63 47.61 0.29 4.60 47.63 003135
47.65 47.52 0.286 4.60 47.65 003136
47.67 47.54 0.282 4.60 47.67 003137
47.69 47.64 0.28 4.40 47.69 003139
47.71 47.43 0.284 4.40 47.71 003140
47.73 47.65 0.285 4.60 47.73 003141
47.75 48 0.284 4.60 47.75 003142
47.76 48.02 0.284 4.60 47.76 003143
47.78 47.61 0.279 4.60 47.78 003144
47.80 47.09 0.277 4.60 47.80 003145
47.82 46.58 0.282 4.60 47.82 003146
47.84 46.81 0.277 4.60 47.84 003147
47.86 46.8 0.282 4.60 47.86 003148
47.88 46.96 0.281 4.60 47.88 003150
47.90 47.51 0.28 4.60 47.90 003151
47.92 47.45 0.279 4.60 47.92 003152
47.94 47.42 0.283 4.60 47.94 003153
47.96 47.61 0.284 4.60 47.96 003154
47.98 47.59 0.285 4.60 47.98 003155
48.00 47.43 0.282 4.60 48.00 003156
48.02 47.41 0.279 4.80 48.02 003157
48.04 47.68 0.288 4.60 48.04 003158
48.06 48.13 0.291 4.60 48.06 003160
48.08 48.39 0.288 4.60 48.08 003161
48.10 48.68 0.289 4.60 48.10 003162
48.12 49.03 0.29 4.60 48.12 003163
48.14 49.34 0.291 4.60 48.14 003164
48.16 49.61 0.291 4.80 48.16 003165
48.18 50 0.293 4.80 48.18 003166
48.20 50.4 0.296 4.60 48.20 003167
48.22 50.94 0.297 4.80 48.22 003169
48.24 50.98 0.299 4.60 48.24 003170
48.26 51.32 0.304 4.80 48.26 003171
48.28 51.57 0.283 4.80 48.28 003184
48.30 51.82 0.262 4.60 48.30 003185
48.32 52.58 0.266 4.80 48.32 003186
48.34 52.23 0.27 4.60 48.34 003187
48.36 52.47 0.287 4.80 48.36 003189
48.38 52.67 0.293 4.80 48.38 003190
48.40 52.8 0.299 4.60 48.40 003191
48.42 52.56 0.303 4.60 48.42 003192
48.44 51.93 0.314 4.60 48.44 003193
48.46 51.83 0.308 4.80 48.46 003194
48.48 51.27 0.308 4.80 48.48 003195
48.50 50.59 0.318 4.80 48.50 003196
48.52 50.34 0.302 4.80 48.52 003197
48.54 49.61 0.294 4.80 48.54 003199
48.56 49.28 0.291 4.80 48.56 003200
48.58 48.54 0.283 4.80 48.58 003201
48.60 47.52 0.276 4.80 48.60 003202
48.62 46.33 0.271 4.80 48.62 003203
48.64 45.35 0.271 4.90 48.64 003204
48.66 44.2 0.274 4.90 48.66 003205
48.68 43.04 0.271 4.90 48.68 003206
48.70 41.82 0.271 5.00 48.70 003207
48.72 39.76 0.265 4.90 48.72 003208
48.74 38.02 0.261 4.90 48.74 003209
48.76 35.64 0.255 4.90 48.76 003211
48.78 32.22 0.247 4.90 48.78 003212
48.80 28.27 0.241 4.90 48.80 003213
48.82 24.5 0.231 5.10 48.82 003214
48.84 21.41 0.22 5.10 48.84 003215
48.86 18.55 0.217 4.90 48.86 003216
48.88 17.51 0.202 4.90 48.88 003217
48.90 16.89 0.195 5.10 48.90 003218
48.92 16.24 0.194 5.10 48.92 003219
48.94 15.79 0.185 5.10 48.94 003220
48.96 15.93 0.167 5.10 48.96 003221
48.98 16.6 0.16 5.10 48.98 003222
49.00 16.99 0.151 5.10 49.00 003223
49.02 16.98 0.157 5.10 49.02 003224
49.04 17.79 0.17 5.10 49.04 003225
49.06 20.39 0.1605 5.10 49.06 003227
49.08 22.99 0.151 5.10 49.08 003246
49.10 24.47 0.145 5.10 49.10 003247
49.12 24.73 0.146 5.10 49.12 003248
49.14 24.5 0.14 5.10 49.14 003249
49.16 24.21 0.128 5.10 49.16 003250
49.18 23.86 0.117 5.10 49.18 003251
49.20 23.53 0.1105 5.10 49.20 003252
49.22 23.36 0.1073 5.10 49.22 003253
49.24 23.3 0.1071 4.90 49.24 003255
49.26 23.37 0.1091 4.90 49.26 003256
49.28 23.57 0.111 5.10 49.28 003257
49.30 24 0.116 4.90 49.30 003258
49.32 24.74 0.1235 4.90 49.32 003259
49.34 25.56 0.131 4.90 49.34 003260
49.36 26.39 0.131 4.90 49.36 003261
49.38 27.14 0.1325 4.90 49.38 003262
49.40 27.4 0.1358 4.90 49.40 003263
49.42 26.91 0.139 4.90 49.42 003264
49.44 26.41 0.139 4.90 49.44 003265
49.46 25.73 0.1385 4.90 49.46 003266
49.48 24.77 0.138 4.90 49.48 003267
49.50 23.12 0.142 4.90 49.50 003268
49.52 21.43 0.138 4.90 49.52 003269
49.54 20.11 0.132 5.10 49.54 003270
49.56 19.49 0.128 4.90 49.56 003271
49.58 19.1 0.131 4.90 49.58 003272
49.60 18.46 0.126 5.10 49.60 003273
49.62 16.48 0.1255 5.10 49.62 003274
49.64 14.89 0.1305 5.10 49.64 003275
49.66 13.76 0.1501 5.10 49.66 003276
49.68 13.15 0.1771 5.10 49.68 003277
49.70 12.94 0.204 5.10 49.70 003278
49.72 12.95 0.2087 5.10 49.72 003284
49.74 12.95 0.2149 5.10 49.74 003284
49.76 10.89 0.2261 5.10 49.76 003285
49.78 9.31 0.2476 5.10 49.78 003286
49.80 8.58 0.2781 5.10 49.80 003287
49.82 8.6 0.313 5.10 49.82 003288
49.84 9.17 0.348 5.10 49.84 003289
49.86 10.19 0.341 5.10 49.86 003290
49.88 12.18 0.3324 5.10 49.88 003291
49.90 14.67 0.3274 5.10 49.90 003292
49.92 17.15 0.3225 5.10 49.92 003293
49.94 21.69 0.336 5.10 49.94 003294
49.96 26.22 0.318 5.10 49.96 003295
49.98 28.84 0.281 5.10 49.98 003297
50.00 30.86 0.254 5.10 50.00 003298
50.02 32.19 0.227 5.10 50.02 003299
50.04 33.36 0.227 5.10 50.04 003300
50.06 34.21 0.223 5.10 50.06 003301
50.08 34.27 0.218 5.10 50.08 003302
50.10 33.85 0.208 5.10 50.10 003303
50.12 33.11 0.188 5.10 50.12 003304
50.14 32.17 0.175 5.10 50.14 003305
50.16 31.47 0.176 5.10 50.16 003306
50.18 31.23 0.177 5.10 50.18 003307
50.20 31.47 0.1805 5.10 50.20 003308
50.22 32.37 0.1893 5.10 50.22 003309
50.24 33.48 0.1986 5.10 50.24 003310
50.26 34.59 0.208 5.10 50.26 003311
50.28 35.23 0.1945 5.10 50.28 003328
50.30 35.86 0.1873 5.10 50.30 003329
50.32 35.99 0.1841 5.10 50.32 003330
50.34 35.34 0.1861 5.10 50.34 003331
50.36 34.74 0.188 5.10 50.36 003332
50.38 34.37 0.1885 5.30 50.38 003333
50.40 34.11 0.189 5.30 50.40 003334
50.42 34 0.1875 5.30 50.42 003335
50.44 33.89 0.1878 5.30 50.44 003336
50.45 33.38 0.188 5.30 50.45 003337
50.47 34.21 0.193 5.30 50.47 003338
50.49 34.24 0.194 5.30 50.49 003339
50.51 34.47 0.192 5.30 50.51 003340
50.53 34.62 0.187 5.30 50.53 003341
50.55 34.81 0.187 5.30 50.55 003342
50.57 34.93 0.191 5.30 50.57 003344
50.59 35.28 0.194 5.30 50.59 003345
50.61 35.78 0.198 5.30 50.61 003346
50.63 36.17 0.201 5.30 50.63 003348
50.65 36.96 0.206 5.30 50.65 003349
50.67 37.77 0.209 5.30 50.67 003351
50.69 38.36 0.215 5.30 50.69 003352
50.71 38.82 0.218 5.30 50.71 003353
50.73 38.63 0.218 5.30 50.73 003355
50.75 37.66 0.218 5.30 50.75 003356
50.77 35.81 0.215 5.30 50.77 003357
50.79 33.69 0.217 5.30 50.79 003358
50.81 31.62 0.222 5.30 50.81 003359
50.83 30.07 0.222 5.30 50.83 003360
50.85 29.03 0.22 5.30 50.85 003361
50.87 28.39 0.217 5.30 50.87 003362
50.89 28.1 0.214 5.30 50.89 003363
50.91 28.28 0.207 5.30 50.91 003364
50.93 29.06 0.201 5.30 50.93 003365
50.95 30.23 0.196 5.30 50.95 003366
50.97 31.21 0.192 5.30 50.97 003367
50.99 31.68 0.193 5.30 50.99 003368
51.01 32.02 0.194 5.30 51.01 003369
51.03 32.46 0.197 5.30 51.03 003370
51.05 32.81 0.201 5.30 51.05 003371
51.07 33.21 0.204 5.30 51.07 003372
51.09 33.55 0.21 5.30 51.09 003373
51.11 33.57 0.21 5.30 51.11 003374
51.13 33.26 0.209 5.30 51.13 003375
51.15 32.61 0.203 5.30 51.15 003376
51.17 31.77 0.196 5.30 51.17 003377
51.19 31.16 0.188 5.30 51.19 003378
51.21 30.72 0.182 5.30 51.21 003379
51.23 30.72 0.181 5.30 51.23 003380
51.25 31.2 0.185 5.30 51.25 003381
51.27 32.46 0.186 5.30 51.27 003382
51.29 33.56 0.1705 5.30 51.29 003395
51.31 34.66 0.1643 5.30 51.31 003396
51.33 35.64 0.1626 5.30 51.33 003397
51.35 36.21 0.1643 5.30 51.35 003398
51.37 36.17 0.1662 5.30 51.37 003399
51.39 35.57 0.1691 5.30 51.39 003400
51.41 34.99 0.172 5.30 51.41 003401
51.43 34.48 0.1715 5.30 51.43 003402
51.45 33.97 0.1713 5.30 51.45 003403
51.47 33.37 0.1764 5.30 51.47 003404
51.49 32.72 0.1842 5.30 51.49 003405
51.51 31.89 0.192 5.30 51.51 003410
51.53 31.05 0.1961 5.30 51.53 003411
51.55 29.95 0.2026 5.30 51.55 003412
51.57 29 0.2103 5.30 51.57 003413
51.59 28.12 0.218 5.30 51.59 003414
51.61 27.74 0.209 5.30 51.61 003415
51.63 27.36 0.21 5.30 51.63 003416
51.65 26.86 0.211 5.30 51.65 003417
51.67 26.29 0.20 5.30 51.67 003418
51.69 25.63 0.189 5.30 51.69 003419
51.71 25.06 0.1675 5.30 51.71 003420
51.73 24.5 0.146 5.30 51.73 003421
51.75 23.72 0.129 5.30 51.75 003422
51.77 23.39 0.117 5.30 51.77 003423
51.79 22.8 0.111 5.50 51.79 003424
51.81 22.3 0.105 5.50 51.81 003425
51.83 21.97 0.105 5.50 51.83 003426
51.85 21.71 0.11 5.50 51.85 003427
51.87 21.49 0.111 5.50 51.87 003428
51.89 21.49 0.112 5.50 51.89 003429
51.91 21.47 0.114 5.50 51.91 003430
51.93 21.71 0.119 5.50 51.93 003431
51.95 22.02 0.121 5.50 51.95 003432
51.97 22.5 0.124 5.50 51.97 003433
51.99 23.14 0.127 5.50 51.99 003434
52.01 24 0.129 5.50 52.01 003435
52.03 24.83 0.13 5.50 52.03 003436
52.05 25.74 0.13 5.50 52.05 003437
52.07 26.72 0.131 5.50 52.07 003438
52.09 27.5 0.13 5.50 52.09 003439
52.11 27.67 0.13 5.50 52.11 003440
52.13 26.99 0.129 5.50 52.13 003441
52.15 25.67 0.1245 5.50 52.15 003442
52.17 24.05 0.1268 5.60 52.17 003443
52.19 21.54 0.129 5.60 52.19 003444
52.21 18.16 0.1305 5.60 52.21 003445
52.23 14.84 0.1343 5.50 52.23 003455
52.25 11.79 0.1561 5.60 52.25 003456
52.27 9.6 0.1806 5.60 52.27 003457
52.29 7.89 0.2138 5.60 52.29 003458
52.31 6.56 0.2529 5.80 52.31 003459
52.33 5.57 0.292 5.60 52.33 003460
52.35 4.79 0.297 5.60 52.35 003461
52.37 4.29 0.29 5.60 52.37 003462
52.39 3.98 0.263 5.80 52.39 003463
52.41 3.77 0.234 5.80 52.41 003464
52.43 3.62 0.1885 5.80 52.43 003465
52.45 3.48 0.143 5.80 52.45 003466
52.47 3.42 0.111 5.80 52.47 003467
52.49 3.34 0.09 5.80 52.49 003468
52.51 3.23 0.073 5.80 52.51 003469
52.53 3.18 0.067 5.80 52.53 003470
52.55 3.15 0.063 5.80 52.55 003471
52.57 3.14 0.057 5.80 52.57 003472
52.59 3.21 0.05 5.80 52.59 003473
52.61 3.24 0.048 5.80 52.61 003474
52.63 3.22 0.053 5.60 52.63 003475
52.65 3.07 0.051 5.60 52.65 003476
52.66 3 0.051 5.60 52.66 003477
52.68 2.95 0.053 5.60 52.68 003478
52.70 2.98 0.055 5.60 52.70 003479
52.72 3.49 0.055 5.60 52.72 003480
52.74 4.24 0.052 5.60 52.74 003481
52.76 4.98 0.0545 5.60 52.76 003482
52.78 5.16 0.0573 5.60 52.78 003483
52.80 5.37 0.0611 5.60 52.80 003484
52.82 5.63 0.0716 5.80 52.82 003484
52.84 5.89 0.082 5.80 52.84 003485
52.86 5.86 0.095 5.80 52.86 003486
52.88 6.3 0.11 5.60 52.88 003487
52.90 6.85 0.125 5.80 52.90 003488
52.92 7.39 0.135 5.80 52.92 003489
52.94 7.54 0.144 5.80 52.94 003490
52.96 7.28 0.147 5.80 52.96 003491
52.98 7.61 0.1528 5.80 52.98 003492
53.00 8.53 0.1599 5.80 53.00 003493
53.02 9.9 0.167 5.80 53.02 003494
53.04 11.49 0.1595 5.80 53.04 003495
53.06 13.08 0.152 5.80 53.06 003496
53.08 14.5 0.1403 5.80 53.08 003497
53.10 14.6 0.1354 5.80 53.10 003498
53.12 14.09 0.1342 5.80 53.12 003499
53.14 13.69 0.1377 5.80 53.14 003500
53.16 13.91 0.1477 5.80 53.16 003501
53.18 14.44 0.1595 5.80 53.18 003511
53.20 15.23 0.1723 5.80 53.20 003512
53.22 16.43 0.185 5.80 53.22 003513
53.24 17.83 0.193 5.80 53.24 003514
53.26 19.31 0.193 5.90 53.26 003515
53.28 20.79 0.189 5.90 53.28 003516
53.30 21.29 0.1755 5.90 53.30 003517
53.32 21.12 0.1688 5.90 53.32 003518
53.34 20.57 0.1694 5.90 53.34 003519
53.36 20.17 0.1737 5.90 53.36 003520
53.38 19.85 0.178 5.90 53.38 003521
53.40 19.53 0.179 5.90 53.40 003522
53.42 19.01 0.176 5.90 53.42 003523
53.44 17.33 0.169 5.90 53.44 003524
53.46 14.75 0.162 5.90 53.46 003525
53.48 12.02 0.168 5.90 53.48 003526
53.50 10.69 0.184 5.90 53.50 003527
53.52 9.63 0.211 5.90 53.52 003528
53.54 8.89 0.232 5.80 53.54 003529
53.56 8.2 0.242 5.80 53.56 003530
53.58 7.55 0.243 5.80 53.58 003531
53.60 6.85 0.245 5.80 53.60 003532
53.62 6.39 0.239 5.80 53.62 003533
53.64 5.92 0.231 5.80 53.64 003534
53.66 5.46 0.211 5.80 53.66 003535
53.68 5.36 0.185 5.80 53.68 003535
53.70 5.38 0.179 5.80 53.70 003536
53.72 5.52 0.175 5.80 53.72 003537
53.74 5.15 0.168 5.80 53.74 003538
53.76 5.1 0.166 5.80 53.76 003539
53.78 5.47 0.157 5.80 53.78 003540
53.80 5.9 0.147 5.80 53.80 003541
53.82 6.06 0.148 5.80 53.82 003542
53.84 6.13 0.143 5.80 53.84 003543
53.86 6.34 0.144 5.80 53.86 003544
53.88 5.91 0.149 5.80 53.88 003545
53.90 5.51 0.156 5.80 53.90 003546
53.92 5.1 0.155 5.80 53.92 003547
53.94 4.67 0.152 5.80 53.94 003548
53.96 4.54 0.15 5.80 53.96 003549
53.98 4.57 0.143 5.80 53.98 003550
54.00 4.41 0.137 5.80 54.00 003551
54.02 4.36 0.131 5.80 54.02 003552
54.04 4.73 0.129 5.80 54.04 003553
54.06 5.34 0.121 5.80 54.06 003554
54.08 5.95 0.113 5.80 54.08 003555
54.10 6.15 0.118 5.80 54.10 003556
54.12 6.49 0.123 5.80 54.12 003557
54.14 7.65 0.1515 5.80 54.14 003567
54.16 8.8 0.18 5.80 54.16 003568
54.18 8.95 0.196 5.80 54.18 003569
54.20 8.92 0.215 5.80 54.20 003570
54.22 8.48 0.234 5.80 54.22 003571
54.24 8.8 0.248 5.80 54.24 003572
54.26 10.27 0.257 5.80 54.26 003573
54.28 12.52 0.266 5.80 54.28 003574
54.30 14.76 0.265 5.80 54.30 003575
54.32 16.88 0.264 5.80 54.32 003576
54.34 18.85 0.263 5.80 54.34 003577
54.36 20.23 0.2535 5.80 54.36 003578
54.38 21.21 0.2453 5.70 54.38 003579
54.40 21.98 0.237 5.70 54.40 003580
54.42 22.84 0.214 5.70 54.42 003581
54.44 24.04 0.193 5.70 54.44 003582
54.46 25.45 0.1755 5.70 54.46 003583
54.48 26.86 0.158 5.70 54.48 003584
54.50 27.88 0.153 5.70 54.50 003585
54.52 28.63 0.15 5.70 54.52 003586
54.54 29.23 0.149 5.70 54.54 003587
54.56 29.69 0.15 5.70 54.56 003588
54.58 30.1 0.154 5.70 54.58 003589
54.60 30.56 0.158 5.70 54.60 003590
54.62 30.96 0.164 5.70 54.62 003591
54.63 31.12 0.17 5.70 54.63 003592
54.65 31.1 0.173 5.70 54.65 003593
54.67 31.06 0.177 5.70 54.67 003594
54.69 31.1 0.182 5.70 54.69 003595
54.71 31.25 0.187 5.70 54.71 003596
54.73 31.15 0.191 5.70 54.73 003597
54.75 31.05 0.192 5.70 54.75 003598
54.77 30.84 0.194 5.70 54.77 003599
54.79 30.72 0.193 5.70 54.79 003600
54.81 30.52 0.193 5.70 54.81 003601
54.83 30.18 0.189 5.80 54.83 003602
54.85 29.8 0.188 5.80 54.85 003603
54.87 29.35 0.188 5.80 54.87 003604
54.89 28.75 0.187 5.80 54.89 003605
54.91 28.37 0.186 5.80 54.91 003606
54.93 27.87 0.182 5.70 54.93 003607
54.95 27.36 0.18 5.70 54.95 003608
54.97 26.67 0.178 5.70 54.97 003609
54.99 25.78 0.174 5.70 54.99 003610
55.01 24.9 0.17 5.70 55.01 003611
55.03 24.25 0.166 5.80 55.03 003612
55.05 23.86 0.164 5.70 55.05 003613
55.07 23.51 0.163 5.70 55.07 003614
55.09 23.36 0.151 5.70 55.09 003625
55.11 23.21 0.139 5.70 55.11 003626
55.13 23.04 0.138 5.70 55.13 003627
55.15 22.76 0.136 5.70 55.15 003628
55.17 22.41 0.135 5.70 55.17 003629
55.19 22.27 0.135 5.70 55.19 003630
55.21 21.86 0.13 5.70 55.21 003631
55.23 21.1 0.123 5.90 55.23 003632
55.25 20.07 0.117 5.90 55.25 003633
55.27 19.03 0.113 5.90 55.27 003634
55.29 18.1 0.11 5.90 55.29 003635
55.31 17.62 0.109 5.90 55.31 003636
55.33 17.08 0.109 5.90 55.33 003637
55.35 16.6 0.11 5.90 55.35 003638
55.37 16.18 0.11 5.90 55.37 003639
55.39 15.86 0.11 5.90 55.39 003640
55.41 15.59 0.106 5.90 55.41 003641
55.43 15.36 0.103 5.90 55.43 003642
55.45 15.12 0.097 5.90 55.45 003643
55.47 14.97 0.095 5.90 55.47 003644
55.49 14.89 0.092 5.90 55.49 003645
55.51 14.8 0.083 5.90 55.51 003646
55.53 14.66 0.078 5.90 55.53 003647
55.55 14.61 0.076 5.90 55.55 003648
55.57 14.63 0.075 5.90 55.57 003649
55.59 14.78 0.074 5.90 55.59 003650
55.61 15.07 0.074 5.90 55.61 003651
55.63 15.31 0.076 5.90 55.63 003652
55.65 15.28 0.08 5.90 55.65 003653
55.67 15.12 0.083 5.90 55.67 003654
55.69 15 0.086 5.90 55.69 003655
55.71 14.88 0.087 5.90 55.71 003656
55.73 14.62 0.084 5.90 55.73 003657
55.75 14.3 0.078 6.10 55.75 003658
55.77 13.9 0.073 6.10 55.77 003659
55.79 13.37 0.065 6.10 55.79 003660
55.81 12.85 0.064 6.10 55.81 003661
55.83 12.22 0.062 6.10 55.83 003662
55.85 11.68 0.064 6.10 55.85 003663
55.87 10.96 0.069 6.10 55.87 003664
55.89 10.57 0.077 6.10 55.89 003664
55.91 10.38 0.094 6.10 55.91 003665
55.93 10.76 0.105 6.10 55.93 003666
55.95 11.28 0.119 6.10 55.95 003667
55.97 11.43 0.136 6.10 55.97 003668
55.99 11.59 0.15 6.10 55.99 003669
56.01 12.28 0.171 6.10 56.01 003670
56.03 13.31 0.177 6.10 56.03 003671
56.05 14.03 0.1515 6.10 56.05 003682
56.07 14.75 0.126 6.10 56.07 003683
56.09 15.09 0.116 6.10 56.09 003684
56.11 15.9 0.103 6.10 56.11 003685
56.13 17.26 0.099 6.10 56.13 003686
56.15 18.93 0.104 6.30 56.15 003687
56.17 20.87 0.113 6.30 56.17 003688
56.19 23.4 0.131 6.30 56.19 003689
56.21 26.31 0.135 6.30 56.21 003690
56.23 29.5 0.141 6.30 56.23 003691
56.25 30.59 0.144 6.30 56.25 003695
56.27 35.17 0.17 6.30 56.27 003696
56.29 37.69 0.177 6.30 56.29 003698
56.31 39.67 0.189 6.30 56.31 003699
56.33 41.12 0.206 6.30 56.33 003701
56.35 42.23 0.218 6.30 56.35 003703
56.37 43.03 0.23 6.30 56.37 003704
56.39 43.83 0.246 6.30 56.39 003706
56.41 44.51 0.268 6.30 56.41 003707
56.43 44.69 0.283 6.30 56.43 003708
56.45 44.68 0.292 6.30 56.45 003710
56.46 44.6 0.303 6.30 56.46 003711
56.48 44.55 0.311 6.30 56.48 003713
56.50 44.59 0.32 6.30 56.50 003714
56.52 44.68 0.328 6.30 56.52 003715
56.54 44.88 0.337 6.30 56.54 003716
56.56 45.07 0.3425 6.30 56.56 003717
56.58 45.19 0.348 6.30 56.58 003719
56.60 45.31 0.351 6.50 56.60 003720
56.62 44.37 0.3435 6.50 56.62 003722
56.64 43.04 0.3363 6.50 56.64 003723
56.66 41.41 0.3296 6.50 56.66 003724
56.68 39.78 0.3233 6.50 56.68 003726
56.70 38.07 0.317 6.50 56.70 003727
56.72 36.35 0.309 6.50 56.72 003728
56.74 34 0.297 6.50 56.74 003729
56.76 32.04 0.283 6.50 56.76 003730
56.78 30.25 0.269 6.50 56.78 003731
56.80 28.59 0.249 6.50 56.80 003732
56.82 26.98 0.232 6.50 56.82 003733
56.84 25.38 0.215 6.50 56.84 003734
56.86 22.81 0.20 6.50 56.86 003735
56.88 19.22 0.196 6.50 56.88 003736
56.90 16.87 0.197 6.50 56.90 003737
56.92 14.47 0.188 6.50 56.92 003738
56.94 12.57 0.197 6.50 56.94 003739
56.96 10.72 0.231 6.50 56.96 003740
56.98 9.33 0.246 6.50 56.98 003741
57.00 8.22 0.25 6.50 57.00 003742
57.02 7.39 0.246 6.50 57.02 003759
57.04 6.56 0.242 6.50 57.04 003760
57.06 5.9 0.218 6.50 57.06 003761
57.08 5.27 0.222 6.50 57.08 003762
57.10 4.85 0.225 6.50 57.10 003763
57.12 4.42 0.207 6.50 57.12 003764
57.14 4.35 0.179 6.50 57.14 003765
57.16 4.44 0.163 6.70 57.16 003766
57.18 4.48 0.148 6.70 57.18 003767
57.20 4.27 0.121 6.70 57.20 003768
57.22 4.11 0.108 6.70 57.22 003769
57.24 4.13 0.109 6.70 57.24 003770
57.26 4.68 0.108 6.70 57.26 003771
57.28 5.85 0.105 6.70 57.28 003772
57.30 6.36 0.106 6.70 57.30 003773
57.32 7.73 0.1075 6.70 57.32 003774
57.34 10.04 0.1143 6.70 57.34 003775
57.36 12.35 0.1211 6.70 57.36 003776
57.38 14.46 0.128 6.70 57.38 003777
57.40 15.11 0.112 6.70 57.40 003778
57.42 15.48 0.1155 6.90 57.42 003779
57.44 15.17 0.1335 6.90 57.44 003780
57.46 15.95 0.1613 6.90 57.46 003781
57.48 17.58 0.1951 6.90 57.48 003782
57.50 19.81 0.2321 6.90 57.50 003783
57.52 22.32 0.269 6.90 57.52 003784
57.54 24.84 0.292 6.90 57.54 003785
57.56 25.4 0.278 6.90 57.56 003789
57.58 24.74 0.257 6.90 57.58 003790
57.60 22.19 0.234 7.10 57.60 003791
57.62 19.74 0.2135 7.10 57.62 003792
57.64 17.5 0.1948 7.10 57.64 003793
57.66 15.52 0.1781 7.10 57.66 003794
57.68 13.84 0.1694 7.10 57.68 003795
57.70 12.16 0.1608 7.10 57.70 003796
57.72 11.26 0.1774 7.10 57.72 003797
57.74 10.89 0.1966 7.10 57.74 003798
57.76 10.53 0.2168 7.10 57.76 003799
57.78 9.7 0.237 7.10 57.78 003800
57.80 8.04 0.2335 7.10 57.80 003801
57.82 6.75 0.2343 7.30 57.82 003802
57.84 6 0.2426 7.30 57.84 003803
57.86 6.4 0.251 7.30 57.86 003804
57.88 7.72 0.243 7.30 57.88 003805
57.90 9.15 0.2288 7.30 57.90 003806
57.91 11.03 0.2151 7.40 57.91 003807
57.93 12.95 0.2114 7.40 57.93 003813
57.95 14.87 0.2127 7.40 57.95 003814
57.97 14.59 0.214 7.40 57.97 003827
57.99 13.74 0.2039 7.40 57.99 003828
58.01 12.55 0.2013 7.40 58.01 003829
58.03 11.64 0.2177 7.40 58.03 003830
58.05 11.02 0.2433 7.40 58.05 003835
58.07 10.54 0.269 7.40 58.07 003836
58.09 10.14 0.2609 7.40 58.09 003837
58.11 9.73 0.2534 7.40 58.11 003838
58.13 9.15 0.247 7.40 58.13 003839
58.15 9.2 0.2457 7.40 58.15 003840
58.17 9.82 0.2471 7.40 58.17 003841
58.19 11.08 0.2492 7.20 58.19 003842
58.21 12.34 0.2513 7.20 58.21 003848
58.23 14.58 0.254 7.20 58.23 003849
58.25 16.86 0.246 7.20 58.25 003850
58.27 19.14 0.232 7.20 58.27 003851
58.29 19.35 0.2095 7.20 58.29 003853
58.31 17.49 0.1921 7.20 58.31 003854
58.33 15.47 0.1811 7.20 58.33 003855
58.35 13.5 0.1795 7.20 58.35 003856
58.37 11.74 0.1862 7.20 58.37 003857
58.39 10.28 0.1988 7.20 58.39 003858
58.41 9.26 0.2144 7.20 58.41 003859
58.43 9.02 0.23 7.20 58.43 003860
58.45 9.65 0.244 7.20 58.45 003861
58.47 10.96 0.25 7.20 58.47 003862
58.49 12.62 0.251 7.20 58.49 003863
58.51 14.28 0.238 7.20 58.51 003864
58.53 15.75 0.2188 7.30 58.53 003865
58.55 14.3 0.207 7.30 58.55 003866
58.57 13.2 0.2025 7.30 58.57 003867
58.59 12.29 0.2017 7.30 58.59 003868
58.61 11.37 0.2009 7.30 58.61 003869
58.63 11.43 0.2142 7.30 58.63 003870
58.65 11.64 0.2291 7.30 58.65 003871
58.67 11.85 0.244 7.30 58.67 003872
58.69 11.92 0.246 7.30 58.69 003873
58.71 11.37 0.238 7.30 58.71 003873
58.73 9.65 0.223 7.30 58.73 003874
58.75 8.3 0.2285 7.30 58.75 003875
58.77 7.31 0.2348 7.30 58.77 003876
58.79 7.79 0.241 7.30 58.79 003877
58.81 9.58 0.2315 7.30 58.81 003878
58.83 11.36 0.222 7.30 58.83 003879
58.85 14.51 0.226 7.30 58.85 003880
58.87 15.63 0.20 7.30 58.87 003881
58.89 15.92 0.166 7.30 58.89 003882
58.91 17.42 0.154 7.30 58.91 003883
58.93 19.36 0.194 7.30 58.93 003884
58.95 22.56 0.209 7.30 58.95 003885
58.97 25.29 0.212 7.30 58.97 003886
58.99 26.75 0.226 7.30 58.99 003888
59.01 27.58 0.213 7.30 59.01 003889
59.03 27.53 0.211 7.30 59.03 003890
59.05 26.98 0.222 7.30 59.05 003891
59.07 25.92 0.218 7.30 59.07 003892
59.09 25.1 0.212 7.30 59.09 003893
59.11 24.8 0.223 7.30 59.11 003894
59.13 24.5 0.234 7.30 59.13 003913
59.14 23.94 0.236 7.30 59.14 003914
59.16 25.81 0.262 7.30 59.16 003915
59.18 27.67 0.28 7.30 59.18 003916
59.20 29.78 0.306 7.30 59.20 003917
59.22 33.17 0.314 7.30 59.22 003920
59.24 36.26 0.321 7.30 59.24 003923
59.26 38.67 0.338 7.30 59.26 003927
59.28 40.57 0.359 7.30 59.28 003930
59.30 41.63 0.372 7.30 59.30 003933
59.32 42.26 0.372 7.10 59.32 003937
59.34 43.03 0.372 7.30 59.34 003938
59.36 43.23 0.37 7.30 59.36 003940
59.38 43.05 0.3605 7.30 59.38 003947
59.40 42.87 0.351 7.30 59.40 003950
59.42 42.87 0.376 7.30 59.42 003952
59.44 43.25 0.396 7.30 59.44 003955
59.46 43.61 0.409 7.30 59.46 003958
59.48 43.97 0.42 7.30 59.48 003961
59.50 44.09 0.444 7.30 59.50 003964
